,Fp1,F3,C3,P3,F7,T3,T5,O1,Fz,Cz,Pz,Fp2,F4,C4,P4,F8,T4,T6,O2,EKG
0,-105.85,-89.23,-79.46,-49.23,-99.73,-87.77,-53.33,-50.74,-32.25,-42.1,-43.27,-88.73,-74.41,-92.46,-58.93,-75.74,-59.47,8.21,66.49,1404.93
1,-85.47,-75.07,-60.26,-38.92,-73.08,-87.51,-39.68,-35.63,-76.84,-62.74,-43.04,-68.63,-61.69,-69.32,-35.79,-58.9,-41.66,196.19,230.67,3402.67
2,8.84,34.85,56.43,67.97,48.1,25.35,80.25,48.06,6.72,37.88,61.0,16.58,55.06,45.02,70.53,47.82,72.03,-67.18,-171.31,-3565.8
3,-56.32,-37.28,-28.1,-2.82,-43.43,-35.05,3.91,-12.66,8.65,3.83,4.18,-51.9,-21.89,-41.33,-11.58,-27.04,-11.73,-91.0,-81.19,-1280.93
4,-110.14,-104.52,-96.88,-70.25,-111.66,-114.43,-71.83,-61.92,-76.15,-79.78,-67.48,-99.03,-93.61,-104.41,-70.07,-89.25,-77.26,155.73,264.85,4325.37
5,-20.69,-0.45,20.3,33.92,13.21,-15.23,42.98,22.13,-35.62,-5.82,22.86,-10.2,17.63,11.2,38.55,14.34,36.18,1.84,-51.15,-1490.19
6,-36.49,-8.83,2.9,26.2,-10.08,-14.21,33.9,10.49,12.04,17.71,26.35,-26.76,6.11,-10.38,18.24,-1.37,16.88,-161.6,-212.83,-3514.16
7,-131.61,-120.48,-115.83,-83.41,-133.04,-128.69,-81.13,-73.72,-70.27,-83.49,-76.24,-117.6,-111.26,-125.67,-87.89,-108.98,-98.35,89.17,197.09,3567.33
8,-59.19,-43.6,-27.73,-10.65,-36.27,-62.26,2.05,-9.66,-69.31,-46.12,-17.32,-49.61,-32.85,-36.34,-3.84,-30.28,-14.37,102.27,102.13,1223.91
9,-4.19,24.56,42.13,57.88,32.25,18.88,67.89,39.43,15.65,35.37,53.7,3.62,39.45,24.49,53.47,32.91,51.99,-151.09,-242.72,-4336.32
10,-107.17,-90.49,-84.56,-52.37,-102.92,-91.15,-53.13,-52.39,-38.58,-51.98,-46.51,-91.04,-86.05,-102.92,-65.82,-82.77,-69.62,12.62,69.75,1448.93
11,-88.22,-77.54,-64.2,-42.66,-76.88,-92.68,-37.97,-37.36,-83.65,-72.0,-46.28,-69.03,-73.47,-79.86,-42.36,-63.31,-50.99,174.86,232.71,3435.97
12,-5.02,22.26,44.38,56.5,33.74,12.02,69.87,39.3,-12.67,18.39,48.34,-0.35,31.16,24.19,54.56,31.24,49.58,-107.62,-181.04,-3582.22
13,-81.73,-56.67,-44.05,-15.56,-66.66,-52.2,-11.58,-25.36,-16.65,-19.83,-11.61,-78.3,-50.94,-68.5,-31.69,-50.49,-38.86,-120.06,-94.57,-1242.92
14,-118.84,-107.87,-94.74,-66.07,-114.52,-115.15,-68.61,-60.57,-86.89,-84.57,-66.83,-105.19,-105.76,-114.82,-72.28,-94.43,-86.8,145.7,260.61,4254.5
15,-19.58,1.82,27.32,41.14,15.9,-10.12,48.97,28.14,-38.78,-3.4,29.77,-13.1,10.08,6.96,40.32,13.67,30.86,-9.73,-50.29,-1462.3
16,-40.45,-16.24,4.18,28.06,-14.33,-11.59,34.28,10.7,-0.59,13.21,27.87,-36.15,-7.17,-21.94,13.65,-10.88,2.49,-174.45,-213.43,-3426.66
17,-127.94,-114.83,-102.32,-69.57,-125.1,-113.23,-68.53,-62.42,-71.97,-76.17,-63.55,-112.92,-111.78,-122.88,-81.21,-107.11,-99.55,83.56,199.35,3538.44
18,-56.67,-41.19,-14.86,2.71,-29.81,-48.16,12.53,0.52,-70.79,-38.27,-4.67,-49.41,-31.5,-32.28,4.15,-29.38,-14.19,90.06,104.24,1095.11
19,-9.74,18.3,45.55,63.04,27.77,22.85,84.99,44.66,7.9,35.5,59.9,-8.58,31.2,23.43,56.19,24.61,43.4,-163.4,-244.29,-4593.17
20,-112.34,-93.04,-78.37,-46.74,-103.93,-85.81,-37.08,-44.73,-42.45,-47.57,-38.7,-98.73,-89.09,-100.65,-59.11,-86.15,-74.94,-22.58,67.99,1188.6
21,-101.57,-88.11,-65.46,-42.04,-84.82,-94.55,-41.0,-34.83,-95.11,-76.21,-45.11,-85.55,-82.88,-82.94,-40.73,-76.66,-59.46,140.62,221.0,3213.02
22,-12.89,16.24,46.85,61.19,30.77,13.47,70.25,45.61,-18.9,19.04,54.25,-5.03,26.59,25.57,61.7,23.45,45.83,-119.79,-186.16,-3670.73
23,-72.14,-47.4,-27.22,0.34,-53.41,-36.97,2.39,-4.89,-8.08,-4.38,8.01,-60.59,-40.91,-50.51,-7.61,-36.91,-26.62,-111.95,-74.06,-1394.31
24,-113.77,-103.15,-84.05,-57.56,-108.36,-103.32,-56.17,-45.39,-81.92,-75.26,-53.0,-99.3,-101.05,-103.15,-56.24,-87.41,-78.52,148.44,272.85,3957.79
25,-24.59,-2.0,28.72,42.81,12.53,-10.15,56.02,34.36,-42.67,-3.31,33.69,-16.97,8.53,10.04,46.68,12.68,28.76,-2.75,-45.66,-1761.32
26,-44.16,-14.12,9.33,33.85,-12.7,-7.47,42.74,21.06,3.21,19.08,35.46,-36.7,-3.6,-14.69,22.18,-4.96,6.43,-171.54,-200.17,-3562.27
27,-131.7,-116.92,-101.74,-70.98,-126.63,-115.53,-77.92,-60.15,-73.81,-74.42,-62.02,-113.02,-112.79,-122.48,-78.75,-108.95,-99.99,82.34,206.29,3305.44
28,-60.71,-41.98,-15.51,0.23,-34.08,-52.63,2.87,0.33,-72.41,-38.29,-5.47,-47.19,-32.57,-32.03,3.35,-29.71,-14.94,99.99,104.35,828.86
29,-14.16,16.58,44.33,60.46,25.37,17.03,65.64,43.95,5.64,34.2,58.03,-10.08,30.93,21.32,52.57,21.7,38.45,-152.28,-241.32,-4561.0
30,-101.33,-83.36,-69.49,-38.0,-94.16,-77.66,-45.61,-35.58,-31.77,-37.12,-28.69,-87.29,-76.08,-90.73,-52.33,-77.36,-71.49,1.55,80.73,1256.5
31,-94.2,-81.64,-62.01,-39.33,-79.94,-92.11,-43.99,-29.9,-85.66,-65.5,-38.8,-78.53,-70.15,-74.74,-37.57,-66.2,-56.71,134.85,225.62,3034.62
32,-2.94,24.65,51.02,65.26,36.83,18.79,70.03,51.39,-6.63,31.16,60.1,4.32,42.03,35.45,64.44,34.75,50.5,-116.61,-179.13,-3868.19
33,-79.0,-52.37,-36.89,-7.25,-58.88,-47.04,-11.43,-12.51,-9.17,-6.91,0.51,-67.3,-39.38,-55.12,-20.72,-44.28,-34.18,-123.25,-85.4,-1417.66
34,-122.35,-109.63,-95.4,-66.09,-116.58,-115.98,-76.68,-55.58,-84.67,-79.59,-62.46,-107.23,-100.71,-108.08,-70.25,-97.63,-90.03,144.83,257.17,4003.62
35,-26.98,-1.89,23.9,39.01,9.31,-10.75,42.27,28.71,-38.84,-1.05,30.62,-14.43,13.82,9.62,39.02,11.09,23.53,-8.92,-57.48,-1791.99
36,-37.43,-6.31,10.13,33.12,-6.23,-5.55,37.25,18.63,14.12,25.95,37.94,-25.41,7.55,-7.03,22.77,1.28,14.31,-167.74,-204.06,-3616.65
37,-120.88,-107.01,-98.07,-67.46,-119.86,-109.44,-73.68,-59.26,-58.88,-65.75,-56.93,-106.56,-99.03,-111.31,-74.06,-97.86,-88.56,86.97,199.13,3344.8
38,-51.49,-32.06,-9.13,6.41,-23.73,-45.16,3.82,2.97,-58.08,-27.54,2.74,-41.15,-17.02,-21.84,11.62,-20.61,-6.56,87.9,99.93,925.26
39,-2.01,30.51,53.42,70.16,37.5,30.86,66.33,48.45,21.99,49.89,69.42,5.93,47.1,35.94,63.69,36.76,53.45,-165.01,-234.88,-4439.35
40,-93.46,-74.02,-63.42,-31.68,-84.85,-70.57,-43.59,-34.96,-22.17,-26.04,-20.27,-79.7,-65.64,-77.93,-43.82,-66.22,-56.77,-2.18,78.55,1283.8
41,-84.03,-67.95,-48.88,-28.56,-66.06,-75.57,-37.06,-27.44,-73.98,-53.78,-27.49,-80.38,-60.0,-60.49,-27.39,-58.26,-42.9,159.61,224.5,3140.3
42,-6.58,28.29,56.0,68.46,41.26,26.3,65.06,45.3,-5.11,34.84,64.07,-4.67,43.78,39.42,66.05,33.24,54.79,-91.45,-187.71,-3736.81
43,-65.63,-35.54,-20.23,6.48,-41.83,-26.51,-3.47,-8.89,4.15,8.46,15.94,-55.47,-27.38,-38.05,-6.75,-33.0,-17.36,-91.32,-79.57,-1312.62
44,-110.9,-94.76,-78.45,-53.33,-99.85,-96.13,-66.01,-52.6,-74.34,-66.44,-49.24,-98.73,-90.58,-93.71,-58.0,-86.95,-71.35,148.69,261.25,4073.74
45,-14.24,13.34,41.02,52.61,28.13,6.49,48.0,33.05,-28.28,13.75,45.7,-9.73,24.26,25.17,53.7,21.75,45.17,5.54,-48.13,-1670.35
46,-28.89,3.24,23.27,43.04,5.1,9.9,42.38,20.72,18.06,35.27,48.55,-26.75,10.36,3.33,32.31,6.14,27.13,-164.3,-195.45,-3487.97
47,-117.46,-100.44,-87.9,-59.23,-109.69,-98.62,-68.55,-59.44,-60.42,-61.0,-49.49,-107.88,-101.8,-105.67,-67.34,-93.14,-77.68,90.62,202.86,3384.79
48,-50.87,-29.04,-4.56,10.41,-18.94,-37.26,2.93,-1.34,-62.2,-28.2,4.99,-44.03,-26.24,-22.5,10.87,-17.64,2.67,96.12,96.67,973.4
49,-3.86,28.05,54.13,67.76,36.99,29.31,63.87,40.06,12.92,44.95,67.03,-2.81,33.59,28.84,57.53,34.18,54.41,-169.27,-240.31,-4407.4
50,-94.85,-76.13,-63.47,-35.94,-87.99,-72.0,-49.31,-42.98,-28.82,-29.7,-24.23,-89.48,-76.16,-86.31,-50.1,-68.43,-55.92,2.37,75.9,1356.69
51,-84.32,-65.45,-45.82,-29.03,-63.85,-74.99,-38.01,-30.97,-76.06,-53.07,-27.9,-69.95,-66.88,-65.94,-31.42,-54.59,-39.01,166.19,222.04,3175.02
52,6.21,38.63,66.27,74.2,51.08,33.11,69.98,49.29,4.11,43.53,70.14,11.32,43.87,40.84,68.2,49.0,69.07,-88.1,-176.05,-3643.39
53,-63.87,-35.16,-19.01,3.7,-43.85,-30.58,-6.9,-10.81,2.63,7.59,13.12,-54.22,-32.95,-45.98,-12.91,-29.64,-13.06,-88.63,-74.07,-1253.01
54,-110.89,-94.42,-79.45,-57.09,-102.79,-101.33,-71.23,-56.06,-74.93,-66.09,-51.15,-99.48,-96.01,-100.83,-64.38,-87.62,-75.06,150.66,256.99,4124.14
55,-11.71,17.0,43.65,50.82,28.26,8.59,49.63,31.35,-23.21,17.57,44.77,-10.74,21.8,19.63,47.57,20.53,38.79,-9.77,-49.8,-1613.93
56,-23.56,10.23,30.31,45.97,8.4,15.93,44.5,22.95,27.68,44.3,51.09,-20.39,14.58,2.58,29.91,9.84,25.72,-162.55,-190.2,-3382.2
57,-113.48,-95.24,-81.84,-58.81,-108.46,-95.19,-70.24,-58.99,-53.22,-52.93,-48.74,-107.81,-97.58,-107.64,-71.5,-94.16,-85.18,80.85,199.07,3456.72
58,-40.38,-18.57,5.33,15.22,-10.69,-29.46,7.03,2.03,-47.94,-13.98,10.6,-35.86,-15.75,-17.44,13.35,-15.86,-0.19,81.54,99.55,1019.56
59,5.13,39.17,63.1,74.36,47.41,36.55,64.43,43.1,30.82,60.05,74.4,5.65,46.5,35.93,62.29,38.13,54.06,-164.65,-232.75,-4309.22
60,-98.73,-75.74,-64.99,-39.15,-88.32,-78.99,-56.27,-48.27,-22.65,-25.99,-26.19,-88.16,-75.21,-89.53,-54.34,-77.68,-70.78,-20.67,70.24,1429.12
61,-90.82,-72.23,-54.35,-36.45,-73.08,-87.19,-48.01,-40.24,-75.79,-55.37,-34.35,-81.06,-69.25,-73.73,-39.55,-70.45,-61.3,128.47,207.66,3203.96
62,-0.3,34.94,60.05,70.02,45.27,26.39,64.03,43.19,5.53,43.45,67.47,2.47,44.56,36.87,64.26,33.86,47.94,-112.09,-183.51,-3671.22
63,-63.82,-32.39,-19.77,4.32,-41.77,-30.47,-14.18,-13.09,10.9,13.05,15.48,-54.87,-28.7,-45.07,-13.47,-37.73,-29.22,-104.21,-76.57,-1179.43
64,-110.34,-91.49,-78.15,-54.77,-100.35,-102.53,-75.0,-54.14,-65.57,-59.87,-48.63,-101.6,-90.29,-98.15,-61.91,-91.24,-85.15,158.38,259.3,4149.68
65,-9.32,19.68,44.93,53.41,30.95,3.49,42.4,33.71,-14.24,23.73,48.52,-10.53,29.74,24.47,52.49,20.11,32.8,2.58,-46.41,-1595.35
66,-21.95,13.18,30.75,48.57,10.5,11.26,33.09,24.37,35.24,50.79,54.81,-19.34,21.64,6.73,35.36,6.7,16.69,-147.41,-187.78,-3377.46
67,-104.12,-82.38,-72.53,-47.61,-96.19,-86.19,-74.86,-49.45,-34.28,-36.4,-35.52,-93.9,-81.01,-92.07,-56.21,-85.68,-83.4,103.53,214.84,3497.9
68,-38.67,-12.74,7.52,17.65,-6.65,-29.45,-0.66,4.7,-38.61,-5.91,16.26,-33.74,-4.94,-7.58,21.97,-15.24,-4.83,80.53,106.01,1022.05
69,-6.67,31.24,53.49,65.12,35.21,22.59,53.26,37.33,25.86,56.33,68.74,-4.44,44.61,36.85,61.46,25.2,39.98,-175.2,-234.52,-4287.05
70,-110.41,-81.34,-70.13,-44.79,-99.81,-84.56,-53.2,-50.91,-25.38,-26.79,-29.61,-101.49,-71.77,-83.95,-52.71,-86.04,-77.36,-28.09,70.41,1549.68
71,-104.09,-78.95,-59.84,-42.86,-86.38,-94.39,-50.12,-42.91,-80.62,-56.5,-38.5,-95.72,-67.87,-69.4,-37.51,-82.06,-65.09,122.08,208.76,3397.49
72,6.86,45.42,69.34,78.59,51.11,31.69,63.76,52.15,16.05,56.93,78.3,10.07,61.84,56.18,77.81,42.49,60.08,-114.67,-173.67,-3386.5
73,-29.28,1.91,11.88,33.83,-6.71,-2.14,4.32,14.93,44.65,49.01,47.42,-21.77,12.73,-3.69,20.45,1.58,2.79,-106.72,-50.52,-934.62
74,-58.07,-42.72,-35.38,-14.63,-47.28,-57.14,-48.68,-18.74,-19.6,-13.23,-4.69,-49.55,-37.51,-45.54,-19.96,-39.35,-41.53,150.51,285.14,4259.13
75,29.0,54.27,74.16,80.15,66.87,33.58,60.4,58.48,17.07,55.63,78.5,30.77,69.71,62.79,79.98,59.77,65.81,-9.27,-29.69,-1589.88
76,-15.6,19.39,33.41,51.06,14.78,13.16,31.03,28.15,39.8,55.22,59.65,-8.47,32.81,16.77,37.61,19.12,25.48,-179.29,-186.28,-3306.77
77,-99.53,-78.68,-71.78,-44.52,-95.04,-89.76,-72.11,-45.26,-33.34,-36.65,-32.71,-85.51,-73.64,-87.07,-56.9,-77.32,-75.38,84.83,210.57,3527.51
78,-30.53,-5.73,11.57,24.17,-2.18,-30.49,3.77,13.97,-32.18,-2.19,22.26,-21.27,2.45,-0.99,23.97,0.58,5.76,105.25,107.29,1046.92
79,0.98,38.37,55.86,70.1,38.8,23.29,53.59,45.84,30.38,58.01,73.16,11.42,51.45,37.99,60.18,40.0,50.97,-157.45,-232.76,-4276.15
80,-92.55,-66.0,-60.81,-31.8,-85.54,-77.08,-58.55,-36.69,-12.61,-18.92,-17.29,-74.52,-61.12,-77.76,-46.49,-63.54,-57.68,-17.04,79.95,1530.8
81,-77.86,-58.61,-45.21,-27.26,-64.97,-82.81,-46.09,-27.84,-62.56,-45.39,-23.4,-64.61,-54.06,-60.05,-28.58,-52.59,-46.19,133.31,215.72,3259.54
82,8.54,43.78,63.89,74.27,47.03,24.77,65.77,51.49,15.76,50.05,73.77,19.28,54.31,45.84,70.03,45.69,57.73,-118.15,-177.43,-3581.57
83,-55.35,-24.47,-15.89,8.68,-39.7,-30.95,-11.54,-4.14,19.86,19.84,20.97,-47.21,-19.64,-37.06,-9.55,-26.48,-19.52,-110.53,-70.43,-1082.73
84,-93.89,-79.16,-70.89,-47.57,-87.42,-93.1,-71.22,-44.59,-55.15,-52.67,-39.95,-79.54,-77.1,-87.75,-56.5,-73.78,-70.65,137.15,261.27,4210.79
85,-6.03,21.67,43.17,49.88,32.77,3.0,47.79,34.16,-14.64,19.41,44.77,5.55,30.14,24.61,45.56,26.26,38.95,-25.03,-54.53,-1557.02
86,-22.05,10.31,25.31,43.16,7.5,8.12,37.47,24.99,31.06,42.93,48.0,-16.59,20.76,4.88,24.72,13.25,26.07,-172.18,-190.57,-3318.32
87,-111.42,-93.74,-86.67,-59.39,-108.76,-101.72,-80.86,-56.49,-47.01,-52.18,-50.52,-96.04,-90.4,-101.65,-76.33,-84.77,-79.98,86.63,201.2,3532.14
88,-39.94,-20.75,0.4,11.85,-14.33,-42.35,-3.76,2.11,-45.3,-16.56,6.77,-26.38,-9.54,-14.54,3.3,-6.59,1.37,82.37,90.82,1009.54
89,-4.84,26.92,48.57,61.51,32.71,17.89,50.61,35.69,25.39,48.82,60.51,5.06,43.13,27.53,41.44,36.97,47.77,-154.29,-246.51,-4259.4
90,-102.56,-81.55,-71.02,-44.59,-93.49,-86.22,-60.6,-50.08,-24.36,-31.38,-34.63,-88.13,-74.51,-92.12,-70.36,-71.81,-70.1,-0.42,61.21,1510.0
91,-81.45,-66.12,-47.03,-31.43,-63.05,-81.53,-46.2,-32.98,-67.32,-50.19,-32.39,-59.7,-57.72,-65.94,-43.18,-51.75,-46.86,138.24,207.52,3229.21
92,9.95,39.3,66.35,75.04,52.93,31.4,64.73,48.03,13.22,48.42,69.07,25.58,54.37,45.0,60.26,51.53,65.56,-110.19,-183.81,-3646.08
93,-50.93,-28.62,-12.97,11.08,-32.57,-24.59,-9.61,-5.94,19.16,18.51,18.5,-43.31,-19.07,-37.38,-14.19,-16.33,-10.37,-106.87,-70.86,-1106.85
94,-101.92,-91.03,-76.96,-54.0,-93.14,-102.45,-80.56,-53.42,-64.69,-61.42,-49.29,-89.55,-86.86,-96.11,-68.93,-75.52,-71.22,135.64,254.08,4185.17
95,-15.49,10.42,36.34,45.26,25.42,-4.39,30.95,26.47,-24.37,11.3,38.6,-5.51,19.36,14.85,34.24,23.29,32.78,-16.19,-57.81,-1571.29
96,-28.19,4.03,24.97,42.44,7.18,6.5,28.29,20.21,26.79,37.81,47.14,-14.24,12.63,-1.52,17.69,13.02,20.88,-161.63,-189.64,-3212.48
97,-106.44,-91.22,-77.83,-51.85,-98.27,-93.66,-73.98,-52.67,-45.36,-50.97,-44.08,-88.45,-89.71,-100.82,-75.16,-80.2,-77.99,85.74,199.49,3487.92
98,-39.27,-20.75,4.73,15.72,-8.37,-33.02,0.16,4.61,-45.9,-17.66,9.07,-24.74,-12.6,-16.35,2.02,-5.24,1.4,86.76,94.29,1062.52
99,2.81,34.38,59.48,70.34,46.43,32.69,54.93,42.27,28.86,53.65,68.14,17.93,47.53,35.63,47.85,47.37,55.82,-167.13,-228.2,-4145.25
100,-87.69,-69.46,-57.14,-33.68,-76.7,-69.5,-50.04,-42.06,-15.66,-22.82,-25.35,-71.64,-61.91,-80.23,-60.89,-56.46,-57.68,-16.69,67.81,1492.04
101,-72.37,-55.63,-35.79,-23.76,-49.34,-63.16,-24.83,-25.97,-57.65,-41.89,-24.23,-50.58,-47.51,-54.56,-37.37,-40.6,-37.78,142.87,208.21,3202.87
102,17.25,47.64,74.49,78.22,65.15,41.72,71.75,52.96,20.93,53.74,73.06,30.72,63.44,53.61,62.1,61.73,71.15,-76.09,-168.74,-3448.83
103,-52.86,-28.29,-11.11,8.3,-30.41,-23.83,-11.83,-9.45,15.65,16.21,16.2,-30.17,-15.32,-33.78,-20.5,-15.1,-14.14,-88.55,-76.13,-1060.26
104,-90.62,-78.53,-61.83,-39.39,-78.86,-86.86,-68.25,-43.52,-53.93,-48.45,-36.33,-65.23,-69.48,-78.21,-58.82,-56.14,-58.23,140.29,250.91,4113.54
105,-2.68,21.39,50.96,59.53,40.18,11.99,45.39,35.53,-11.3,25.76,50.78,14.04,39.01,33.48,44.23,42.71,48.61,-14.92,-48.6,-1510.6
106,-30.05,-0.54,24.17,43.75,6.16,5.6,31.42,17.13,24.6,38.78,45.99,-15.15,18.19,3.02,16.13,14.98,20.44,-157.6,-192.56,-3206.18
107,-108.77,-96.73,-78.85,-50.5,-99.53,-95.22,-72.16,-54.17,-46.68,-50.56,-44.36,-88.57,-84.23,-96.82,-76.43,-75.36,-77.54,86.81,189.01,3432.95
108,-39.29,-27.08,3.64,18.79,-11.06,-33.29,3.2,6.18,-47.87,-16.49,9.94,-24.03,-8.79,-15.03,2.19,-4.97,0.24,99.44,94.89,1058.18
109,-4.84,25.4,57.01,73.75,39.78,27.06,57.02,45.18,24.71,52.15,68.4,8.09,48.4,33.03,46.64,43.67,52.9,-147.22,-220.04,-4090.58
110,-94.16,-75.01,-55.44,-26.52,-80.31,-69.73,-51.98,-35.35,-19.31,-22.7,-19.54,-70.57,-60.45,-79.57,-57.94,-56.2,-55.45,-15.71,76.91,1465.55
111,-77.66,-63.71,-40.01,-20.28,-55.33,-74.56,-42.23,-24.91,-65.92,-45.46,-25.02,-54.1,-49.82,-58.75,-38.17,-40.64,-40.55,131.91,208.71,3200.72
112,1.21,31.18,63.53,74.57,49.99,26.55,60.55,48.23,2.77,40.99,65.63,21.67,51.11,39.7,54.17,51.53,58.23,-89.75,-168.17,-3457.1
113,-70.25,-41.44,-19.38,5.21,-42.59,-32.95,-15.09,-11.4,0.55,4.18,8.56,-45.97,-27.21,-48.19,-29.08,-26.13,-23.97,-67.65,-71.14,-1071.51
114,-116.59,-101.36,-79.66,-55.55,-99.95,-104.84,-77.3,-55.17,-77.88,-69.53,-55.52,-91.13,-88.99,-102.1,-78.84,-80.93,-79.56,148.28,242.11,4081.59
115,-19.76,7.03,40.12,50.2,25.7,-1.49,35.79,30.24,-27.16,12.42,39.82,-0.12,25.92,16.83,34.01,26.9,36.91,-18.2,-52.67,-1531.14
116,-35.55,-4.59,20.96,40.97,1.45,-0.47,25.27,16.62,16.55,32.84,40.42,-20.51,12.47,-7.06,10.81,11.39,15.53,-173.59,-189.71,-3196.06
117,-119.44,-102.97,-85.21,-56.7,-107.53,-104.16,-81.83,-58.39,-58.1,-57.35,-51.55,-94.0,-91.06,-106.49,-81.8,-83.72,-85.21,66.81,193.35,3478.72
118,-56.55,-32.04,-2.72,11.93,-17.91,-41.77,-2.11,0.98,-59.05,-24.8,3.16,-32.88,-15.42,-22.6,-2.53,-14.04,-8.81,65.19,90.1,1021.51
119,-7.32,27.36,57.46,71.42,39.02,28.92,60.89,45.38,20.56,50.03,65.79,10.77,47.36,32.3,47.75,43.91,49.49,-164.32,-223.88,-4089.36
120,-101.95,-79.07,-62.42,-34.63,-83.19,-76.17,-47.26,-38.94,-26.92,-30.64,-29.57,-73.88,-65.85,-85.27,-63.04,-60.91,-63.93,-8.1,73.39,1577.45
121,-90.14,-72.21,-46.69,-29.96,-60.85,-79.88,-34.29,-26.37,-75.57,-55.86,-35.05,-63.16,-56.04,-65.43,-42.26,-48.07,-47.6,128.58,208.49,3233.66
122,-5.76,26.77,58.08,66.04,47.24,25.14,70.37,48.85,-0.85,35.3,58.23,14.0,47.64,36.8,52.88,48.45,55.14,-106.19,-171.27,-3425.78
123,-77.87,-50.47,-30.82,-6.84,-49.09,-42.26,-13.32,-15.27,-7.43,-4.3,-1.79,-53.27,-32.75,-50.96,-31.21,-31.97,-29.76,-98.66,-71.55,-946.17
124,-122.02,-102.71,-82.39,-58.79,-100.89,-103.19,-73.0,-52.85,-79.55,-71.7,-59.36,-87.66,-89.38,-99.08,-75.18,-79.89,-80.28,128.34,247.29,4206.9
125,-31.99,-0.4,33.61,41.46,22.45,-4.22,37.48,29.17,-36.1,4.12,31.41,-7.72,17.46,13.77,30.69,22.11,30.56,-25.04,-50.75,-1437.21
126,-41.79,-5.47,19.63,36.92,2.66,-0.61,21.42,19.72,12.92,31.5,38.02,-15.03,13.67,-4.33,15.54,13.08,18.25,-155.94,-181.39,-3069.58
127,-121.7,-100.56,-82.51,-56.07,-102.25,-98.96,-79.11,-53.52,-58.5,-55.63,-51.41,-88.18,-87.68,-102.98,-77.17,-76.82,-81.05,91.85,196.96,3555.78
128,-62.39,-33.76,-1.77,9.86,-17.45,-39.1,-4.0,3.25,-61.67,-23.69,2.16,-30.29,-17.18,-21.26,-0.56,-8.3,-5.62,63.93,94.1,1108.83
129,-19.61,22.94,54.81,68.36,37.3,27.51,61.73,45.16,15.56,49.54,65.55,10.72,43.86,32.03,49.48,44.91,48.89,-179.71,-218.84,-4029.82
130,-105.08,-76.04,-54.98,-25.57,-78.43,-67.2,-47.2,-31.14,-22.9,-19.67,-17.65,-60.5,-58.9,-74.13,-48.64,-49.69,-53.8,-15.67,83.08,1585.03
131,-90.24,-70.7,-39.93,-19.06,-57.78,-74.53,-46.71,-23.75,-70.9,-43.82,-21.99,-48.77,-48.73,-54.26,-29.4,-35.49,-37.81,144.33,212.84,3239.44
132,-18.42,13.59,56.08,70.89,38.89,19.29,52.99,44.99,-5.85,38.87,63.72,15.29,45.05,38.73,57.15,50.17,53.46,-105.27,-167.72,-3409.14
133,-84.12,-55.0,-21.98,7.03,-47.75,-34.65,-19.59,-11.91,-3.22,9.87,12.55,-44.12,-24.82,-39.94,-19.06,-16.27,-22.75,-114.79,-71.46,-997.35
134,-129.09,-111.58,-76.49,-49.21,-100.73,-102.22,-73.71,-53.37,-78.16,-61.24,-47.87,-83.99,-83.51,-89.53,-66.6,-68.4,-71.75,125.39,242.05,4114.3
135,-39.65,-10.8,37.03,50.19,17.11,-3.75,37.95,26.69,-33.64,15.31,41.72,0.54,25.35,23.39,37.52,31.37,37.67,-24.93,-48.29,-1458.74
136,-53.38,-18.03,24.86,48.34,-3.19,7.24,27.84,19.41,15.69,43.23,49.5,-14.3,17.68,7.55,21.01,20.51,23.51,-172.12,-179.69,-3159.16
137,-134.36,-112.82,-74.49,-43.02,-107.74,-92.39,-73.99,-52.22,-52.7,-41.5,-38.31,-88.3,-82.61,-90.05,-68.43,-69.38,-76.3,88.61,199.05,3498.65
138,-65.87,-40.55,10.67,26.3,-13.79,-28.95,5.04,5.14,-50.8,-6.05,17.02,-26.31,-6.27,-6.09,10.61,0.42,-0.0,86.35,95.63,992.06
139,-34.9,4.39,55.63,73.5,28.79,27.92,56.65,38.08,16.25,56.96,68.52,8.88,42.65,35.76,48.39,42.2,43.53,-181.19,-230.35,-4138.94
140,-132.03,-101.74,-62.23,-31.23,-97.0,-74.57,-57.5,-46.86,-32.23,-22.53,-25.28,-82.52,-71.32,-81.34,-60.87,-63.48,-69.95,-26.1,74.44,1589.37
141,-113.33,-87.04,-40.21,-21.46,-70.35,-72.28,-40.9,-34.26,-76.0,-42.1,-26.39,-64.44,-57.27,-56.42,-37.42,-48.6,-50.1,116.34,201.86,3165.26
142,-35.94,7.03,60.04,69.67,37.97,25.42,61.67,38.25,-5.94,45.83,62.08,6.7,44.18,40.42,53.42,42.49,47.27,-133.77,-186.85,-3559.18
143,-112.28,-68.37,-28.36,-4.2,-59.03,-42.91,-19.11,-25.01,-9.06,6.79,1.61,-60.52,-37.02,-47.28,-29.11,-33.06,-36.13,-124.94,-76.95,-979.59
144,-146.83,-114.68,-75.08,-53.41,-105.16,-101.75,-71.95,-57.79,-76.11,-56.08,-52.16,-89.07,-83.22,-87.95,-65.57,-70.8,-78.69,125.61,246.22,4130.27
145,-54.08,-9.31,43.28,50.12,16.7,1.96,42.47,26.05,-28.47,23.07,39.36,0.65,29.29,28.11,43.67,32.68,33.01,-32.09,-57.31,-1589.95
146,-84.17,-31.44,14.66,32.18,-18.57,-7.31,21.26,3.82,5.93,35.21,31.31,-29.36,4.85,-6.81,10.27,2.41,-0.62,-181.37,-193.93,-3186.74
147,-173.48,-130.62,-89.92,-65.13,-128.86,-112.21,-80.79,-71.09,-69.63,-56.6,-61.61,-103.83,-99.5,-107.43,-84.48,-93.41,-104.48,63.49,190.06,3505.56
148,-94.71,-48.88,2.16,12.27,-30.99,-42.82,4.9,-4.04,-59.68,-12.92,2.29,-32.02,-13.86,-13.25,2.0,-12.79,-17.47,85.75,87.03,956.02
149,-62.61,2.73,54.91,66.87,18.11,19.47,55.57,35.41,11.8,56.12,61.15,-3.65,42.43,34.78,46.14,32.82,32.93,-138.2,-221.38,-4175.88
150,-156.97,-98.98,-58.2,-30.34,-103.81,-80.22,-54.58,-44.73,-28.06,-16.35,-25.67,-84.68,-63.84,-76.97,-57.58,-69.77,-77.13,-2.96,83.42,1542.82
151,-135.42,-84.05,-35.18,-16.43,-75.87,-76.56,-36.05,-27.97,-68.61,-33.78,-20.7,-64.1,-45.2,-48.56,-29.28,-50.89,-55.87,132.3,213.51,3105.73
152,-57.39,14.25,71.29,83.34,31.31,27.41,71.71,50.29,8.3,60.05,75.62,15.1,60.25,55.18,68.31,47.28,45.18,-118.95,-164.82,-3539.78
153,-123.06,-57.18,-9.89,16.67,-57.69,-32.91,-5.92,-6.17,8.29,27.82,22.1,-48.65,-13.22,-28.02,-8.88,-24.11,-35.65,-110.29,-53.71,-1021.42
154,-165.01,-113.52,-65.26,-40.38,-112.61,-97.97,-64.4,-47.44,-68.92,-44.48,-38.97,-83.4,-71.51,-78.16,-55.73,-79.08,-92.34,127.88,256.88,4045.76
155,-70.16,-6.34,51.88,64.24,11.79,4.27,46.27,36.9,-19.2,37.26,55.38,6.92,43.38,40.64,55.17,26.31,22.45,-19.36,-41.02,-1625.57
156,-89.65,-20.5,32.23,54.84,-16.03,2.87,32.34,23.32,24.95,56.66,56.13,-16.64,33.12,17.98,33.89,7.94,4.79,-168.49,-167.1,-3178.4
157,-178.69,-122.63,-77.54,-45.48,-130.49,-105.59,-73.17,-55.76,-54.51,-40.07,-41.04,-104.1,-76.11,-88.42,-63.6,-93.53,-101.48,64.36,202.8,3428.32
158,-106.55,-46.79,8.88,27.13,-38.04,-43.48,6.83,6.71,-49.05,-1.11,17.57,-33.23,5.48,0.6,19.79,-16.74,-18.84,64.09,98.9,932.69
159,-67.38,3.05,61.12,79.58,9.79,15.37,68.08,44.72,25.08,68.82,74.37,3.84,62.25,49.95,65.59,29.42,34.82,-164.69,-211.82,-4103.75
160,-159.1,-100.83,-55.6,-23.89,-114.43,-87.72,-47.27,-39.76,-21.86,-9.28,-17.89,-85.45,-50.49,-64.49,-41.41,-77.91,-76.15,-1.1,79.46,1439.56
161,-144.57,-91.54,-38.88,-16.61,-90.66,-89.9,-42.17,-29.98,-68.77,-32.92,-24.19,-75.79,-45.79,-47.9,-25.45,-74.19,-68.76,144.17,204.96,3073.56
162,-63.03,2.79,63.94,78.42,15.24,4.83,58.06,43.25,3.17,55.3,67.15,-10.45,56.16,50.54,66.05,12.12,28.39,-114.02,-163.99,-3489.66
163,-131.96,-69.43,-17.99,10.23,-77.5,-55.51,-17.04,-14.73,1.35,20.42,10.06,-68.42,-24.16,-34.69,-17.68,-64.49,-51.97,-116.34,-66.31,-1050.06
164,-164.12,-115.65,-66.04,-38.49,-122.76,-114.19,-66.14,-47.32,-65.01,-42.79,-42.25,-107.27,-74.41,-77.13,-60.78,-108.05,-96.06,118.7,247.1,4009.66
165,-66.92,-9.72,51.27,65.42,3.02,-13.65,45.07,36.8,-17.32,36.26,49.64,-23.38,38.27,38.63,42.92,-5.95,13.66,-19.81,-42.45,-1521.52
166,-82.17,-19.82,33.29,57.87,-18.58,-11.54,35.56,25.59,26.77,58.15,51.88,-37.31,26.43,16.46,19.77,-22.24,-3.48,-154.35,-170.23,-3162.79
167,-161.52,-115.61,-69.48,-37.75,-124.26,-110.95,-68.92,-48.18,-47.64,-32.42,-38.68,-112.71,-77.73,-84.66,-73.21,-117.99,-103.96,74.9,200.78,3357.76
168,-92.61,-44.84,12.24,29.17,-35.34,-49.07,4.09,8.31,-48.38,1.32,15.3,-57.55,-5.37,-1.87,4.53,-47.16,-24.66,71.7,100.86,947.68
169,-56.78,3.29,62.29,80.33,13.06,11.65,60.6,43.99,19.83,65.06,70.99,-23.61,47.72,42.55,49.83,-4.52,19.13,-172.39,-211.57,-4087.43
170,-142.52,-93.11,-46.02,-15.44,-103.88,-81.17,-42.88,-33.45,-20.08,-3.95,-13.9,-102.74,-54.91,-64.25,-48.23,-100.81,-85.99,-24.47,78.38,1448.66
171,-134.7,-89.27,-35.84,-14.08,-90.89,-89.73,-36.18,-25.97,-72.66,-31.57,-22.04,-97.58,-51.25,-47.81,-31.82,-91.72,-76.27,123.36,204.43,3058.89
172,-64.26,-2.77,59.89,74.35,1.74,4.45,61.66,41.84,-7.35,50.4,63.46,-30.43,42.51,44.39,54.34,-10.82,10.16,-116.73,-168.03,-3402.61
173,-139.45,-84.72,-30.76,-1.66,-102.51,-68.23,-18.7,-23.85,-18.49,10.04,1.09,-101.25,-39.78,-46.11,-29.57,-93.71,-77.95,-116.71,-75.97,-921.32
174,-169.35,-123.17,-70.96,-43.36,-141.66,-117.14,-68.42,-54.05,-77.41,-46.07,-44.97,-122.39,-84.25,-82.73,-61.98,-127.57,-116.46,114.13,236.96,4172.85
175,-41.12,10.06,72.16,82.76,15.09,15.41,60.95,47.54,-1.99,57.92,69.14,-13.67,53.99,56.78,67.94,4.84,18.21,-25.37,-32.41,-1351.59
176,-41.09,15.44,69.14,87.37,11.47,37.32,59.53,45.53,56.86,93.39,84.15,-12.37,56.92,49.29,60.75,4.77,14.5,-155.46,-149.37,-3057.39
177,-132.17,-85.76,-40.61,-14.84,-100.03,-68.26,-46.74,-35.19,-23.4,-2.92,-14.47,-89.07,-51.49,-59.62,-41.15,-94.19,-91.88,69.42,210.93,3348.33
178,-85.76,-35.51,23.39,36.17,-36.33,-29.34,16.95,9.3,-40.8,14.15,22.86,-49.75,4.92,5.7,18.4,-39.76,-25.73,69.29,102.23,935.72
179,-57.7,9.35,69.35,82.48,1.77,25.34,68.09,42.5,21.2,73.52,73.53,-29.51,51.49,45.75,52.94,-1.72,19.23,-165.08,-209.01,-4080.44
180,-143.83,-88.43,-42.7,-15.17,-117.53,-74.67,-37.92,-37.47,-20.5,0.72,-13.5,-115.26,-54.61,-63.95,-49.84,-100.76,-85.5,-6.1,82.85,1445.53
181,-127.27,-79.77,-27.57,-7.91,-96.51,-78.19,-28.42,-27.72,-66.9,-21.36,-18.34,-95.29,-44.11,-43.8,-30.65,-84.16,-65.95,133.64,206.89,3079.33
182,-44.85,16.58,74.84,84.49,9.27,18.48,80.64,44.7,5.84,67.83,72.83,-25.64,54.1,55.14,62.31,6.6,35.58,-93.63,-165.12,-3438.64
183,-108.0,-47.3,-3.49,19.26,-76.55,-39.19,4.63,-10.17,8.94,37.23,21.48,-87.12,-18.34,-25.28,-11.85,-63.31,-40.39,-104.0,-63.13,-1022.95
184,-151.27,-100.29,-58.31,-34.81,-128.08,-103.97,-65.73,-51.43,-65.77,-34.29,-40.37,-122.94,-80.84,-75.87,-58.12,-115.41,-93.21,114.87,237.31,3972.49
185,-58.21,3.09,54.82,65.22,-6.95,-7.96,42.81,29.21,-19.75,42.29,50.22,-40.54,27.28,35.82,46.45,-14.83,17.86,-33.04,-53.12,-1507.59
186,-73.3,-4.33,39.4,57.49,-28.08,-5.75,33.0,17.8,24.69,64.14,52.62,-64.09,17.09,13.93,26.62,-28.03,3.29,-182.72,-176.4,-3141.58
187,-154.25,-95.02,-61.16,-35.56,-130.41,-100.07,-66.09,-55.24,-47.12,-23.94,-37.33,-140.63,-87.89,-84.03,-63.7,-118.63,-90.42,49.09,191.4,3362.73
188,-88.69,-22.3,21.57,32.3,-39.15,-42.51,10.37,3.34,-46.96,9.78,18.38,-80.26,-11.76,-1.43,15.79,-47.38,-10.81,60.75,91.56,930.99
189,-45.2,34.86,77.65,89.8,19.0,25.46,68.93,44.75,29.35,81.86,79.01,-39.66,46.76,48.44,62.94,5.66,44.98,-158.97,-210.03,-4060.99
190,-143.14,-73.26,-43.29,-17.79,-107.72,-76.25,-44.36,-41.89,-25.19,-1.5,-18.66,-130.16,-72.19,-72.66,-50.58,-103.01,-71.59,-28.71,72.58,1417.63
191,-130.76,-64.84,-27.88,-13.11,-85.83,-82.09,-32.96,-32.83,-73.73,-27.78,-25.3,-120.33,-66.54,-55.71,-35.73,-93.32,-54.51,120.0,200.37,3038.7
192,-50.2,32.22,73.45,80.16,22.89,20.8,73.97,41.14,-1.18,60.49,65.13,-47.89,34.03,41.3,53.98,1.39,45.82,-102.94,-163.58,-3458.95
193,-112.3,-30.53,-3.77,16.85,-57.17,-32.54,11.45,-10.73,0.4,30.22,14.07,-107.83,-35.61,-38.36,-20.11,-64.09,-26.35,-99.68,-58.33,-1067.02
194,-155.4,-84.17,-58.54,-40.08,-107.82,-96.54,-56.58,-52.08,-76.41,-42.79,-48.23,-142.33,-96.36,-90.04,-67.1,-113.81,-78.65,127.77,242.46,3957.83
195,-74.73,9.48,47.73,52.99,3.52,-2.38,47.09,22.28,-39.41,24.57,32.64,-64.72,3.33,13.72,31.19,-20.49,22.56,-17.92,-52.52,-1568.16
196,-92.75,-0.27,28.76,42.88,-18.15,-0.27,38.21,9.22,4.33,44.69,32.55,-86.33,-9.19,-8.49,9.95,-35.91,5.34,-154.1,-180.33,-3175.5
197,-172.1,-93.28,-73.64,-51.91,-121.07,-99.23,-67.92,-63.14,-68.05,-43.14,-57.98,-159.82,-109.73,-105.79,-81.33,-126.77,-88.57,83.49,187.98,3312.41
198,-101.57,-20.24,10.0,15.51,-27.62,-34.64,8.62,-5.63,-63.26,-6.43,-1.72,-87.91,-32.88,-21.53,-2.57,-51.19,-6.06,71.2,88.64,924.92
199,-66.16,27.61,57.9,65.17,18.87,24.78,65.26,28.61,4.26,57.25,52.11,-57.18,16.46,23.0,37.49,-6.75,39.81,-165.1,-219.31,-4108.81
200,-156.15,-72.62,-54.76,-35.2,-100.38,-72.76,-43.92,-53.56,-38.15,-17.31,-38.32,-141.05,-90.15,-88.01,-67.18,-106.43,-67.14,-16.48,70.55,1415.52
201,-135.35,-57.27,-35.69,-25.81,-71.68,-70.84,-33.7,-42.14,-80.35,-36.69,-39.35,-120.83,-75.56,-64.96,-45.72,-89.02,-48.01,133.76,194.98,3011.98
202,-60.77,33.69,63.38,65.45,28.35,27.11,66.07,27.86,-10.26,48.31,48.49,-62.04,19.85,28.89,39.96,-1.0,46.19,-115.52,-175.28,-3466.66
203,-124.5,-32.33,-14.91,1.06,-58.25,-32.86,-7.1,-26.27,-6.97,18.75,-1.89,-120.03,-50.43,-50.43,-36.29,-67.23,-26.29,-123.34,-75.09,-1066.38
204,-164.84,-86.64,-69.98,-53.98,-112.06,-98.61,-65.68,-67.02,-82.16,-52.14,-62.61,-154.98,-108.11,-100.68,-83.92,-117.47,-77.78,106.01,227.14,3910.53
205,-75.17,14.01,43.39,44.5,4.24,0.69,45.83,14.0,-37.47,23.01,26.54,-68.82,-0.43,10.44,19.89,-17.03,34.07,-29.0,-59.98,-1599.36
206,-80.68,13.26,33.88,45.25,-10.77,7.82,39.96,9.13,17.66,54.46,37.51,-73.53,-2.27,-0.8,7.95,-19.83,29.95,-162.71,-176.24,-3160.93
207,-159.12,-82.3,-69.53,-50.37,-114.61,-90.43,-64.83,-64.97,-56.37,-35.65,-54.65,-145.95,-103.23,-101.2,-84.45,-110.48,-65.24,81.09,191.16,3356.17
208,-97.42,-17.59,7.11,12.96,-32.16,-34.37,8.16,-10.74,-60.31,-6.21,-4.56,-86.88,-31.7,-21.72,-9.74,-44.28,9.24,78.06,87.9,911.22
209,-52.19,35.73,62.07,68.37,20.19,29.62,73.51,29.03,16.11,64.39,53.75,-44.12,26.38,28.84,37.41,10.11,63.6,-155.06,-215.94,-4053.62
210,-139.22,-66.84,-52.77,-33.77,-97.97,-65.99,-35.93,-52.61,-31.68,-14.86,-39.04,-129.3,-85.14,-86.51,-69.01,-95.7,-45.54,-3.0,69.14,1473.32
211,-127.1,-61.14,-39.65,-28.09,-78.46,-73.95,-39.84,-45.6,-81.8,-41.07,-45.21,-119.96,-78.01,-68.7,-52.69,-86.86,-30.63,130.22,186.43,3031.88
212,-41.7,41.0,71.39,75.09,34.48,33.61,63.73,32.7,-2.91,55.14,52.28,-33.07,33.58,39.21,48.21,15.24,78.66,-91.23,-171.88,-3491.38
213,-112.64,-32.21,-13.91,5.12,-57.28,-26.92,-10.69,-27.8,-7.71,18.11,-5.6,-104.67,-43.51,-47.7,-32.41,-63.0,-4.66,-85.56,-71.64,-1014.66
214,-152.65,-88.02,-69.28,-51.82,-111.13,-92.37,-68.58,-68.63,-84.22,-52.92,-65.83,-141.85,-103.3,-98.29,-81.29,-109.9,-58.6,119.28,225.31,3929.17
215,-58.69,12.66,44.52,48.66,9.18,6.77,40.49,13.19,-37.15,25.01,24.45,-52.55,7.29,15.57,24.11,-8.56,46.27,-38.04,-63.41,-1555.18
216,-67.69,6.38,31.79,45.3,-10.52,12.75,30.59,4.16,11.93,51.99,32.71,-57.76,1.67,-0.47,8.29,-15.46,28.71,-168.87,-184.57,-3113.16
217,-139.04,-83.61,-65.12,-44.16,-109.07,-85.45,-70.3,-65.66,-54.14,-32.94,-53.92,-124.48,-92.46,-94.04,-77.58,-97.91,-64.44,63.94,185.98,3375.76
218,-74.29,-15.66,14.06,19.32,-22.47,-28.17,1.99,-11.06,-55.41,-0.2,-2.4,-60.32,-20.51,-13.1,-0.66,-27.89,12.35,56.8,81.97,940.69
219,-40.03,29.46,60.28,67.82,22.32,28.43,52.85,23.07,11.84,62.7,51.92,-34.13,31.83,29.84,39.48,14.47,58.43,-163.66,-224.36,-4059.57
220,-125.45,-68.58,-48.53,-29.24,-92.32,-61.09,-52.91,-56.8,-30.7,-9.71,-35.02,-112.81,-71.62,-78.83,-61.98,-78.99,-45.57,-26.1,66.54,1501.24
221,-107.42,-61.57,-34.3,-25.47,-70.2,-67.89,-44.61,-48.78,-78.94,-35.58,-41.89,-92.11,-62.88,-62.19,-44.41,-66.45,-31.71,107.52,182.53,3055.47
222,-18.1,40.3,76.45,77.72,42.67,43.15,61.91,32.33,3.39,61.72,57.55,-9.49,45.75,46.17,55.56,32.46,72.29,-103.68,-176.79,-3405.81
223,-85.85,-31.78,-6.17,7.77,-46.45,-16.02,-14.81,-27.69,-0.87,26.84,0.37,-70.78,-29.21,-38.5,-24.61,-39.05,-4.01,-99.34,-78.89,-984.53
224,-126.63,-86.93,-61.52,-48.19,-98.63,-80.41,-68.63,-68.4,-75.03,-43.33,-59.5,-104.89,-86.7,-89.48,-71.59,-87.18,-55.89,121.78,220.94,4010.17
225,-28.84,21.99,59.05,56.71,31.2,23.83,45.44,16.76,-21.83,38.75,36.78,-14.83,29.41,31.6,39.29,21.2,64.09,-22.95,-62.12,-1510.02
226,-43.76,10.48,38.47,45.9,6.53,23.66,26.82,3.02,20.25,58.6,36.47,-34.45,18.09,8.44,16.52,3.69,45.81,-155.54,-187.69,-3028.26
227,-125.9,-87.99,-66.9,-51.51,-104.09,-77.11,-79.27,-74.21,-54.97,-33.4,-57.0,-109.88,-84.64,-92.75,-78.01,-88.32,-52.69,57.34,176.6,3456.03
228,-59.66,-20.08,12.13,13.29,-15.66,-20.93,-4.94,-18.82,-55.86,-4.0,-5.98,-47.79,-13.72,-12.85,-3.71,-19.72,25.02,40.76,68.01,969.92
229,-12.36,35.9,70.25,70.29,39.65,50.93,54.46,22.8,22.38,69.38,55.92,-9.02,45.87,38.89,43.76,36.56,79.39,-180.43,-230.04,-3945.94
230,-104.47,-63.76,-44.39,-31.12,-80.17,-46.64,-48.74,-61.03,-23.72,-7.74,-36.85,-94.85,-62.52,-74.02,-61.77,-65.07,-28.19,-40.88,55.89,1595.6
231,-87.05,-52.59,-27.78,-22.02,-55.03,-48.18,-42.03,-48.74,-68.21,-28.41,-37.84,-75.85,-48.97,-50.72,-39.89,-48.67,-6.89,123.45,181.73,3091.12
232,-0.85,45.8,78.06,76.68,53.1,54.89,58.66,28.25,8.54,63.65,56.15,4.21,56.3,50.73,55.87,47.17,91.76,-91.12,-176.52,-3389.82
233,-72.77,-31.57,-11.64,1.96,-43.23,-12.87,-19.27,-35.95,-0.42,21.58,-6.16,-68.95,-26.2,-38.14,-28.67,-33.28,5.87,-112.29,-80.52,-873.18
234,-106.49,-80.04,-62.57,-49.85,-89.06,-74.9,-70.8,-71.21,-69.36,-43.5,-61.55,-96.97,-77.26,-81.19,-66.98,-74.18,-38.24,109.0,223.63,4044.49
235,-16.76,24.82,53.39,52.13,31.92,28.59,39.42,10.05,-20.11,35.4,29.55,-13.03,34.55,34.5,41.84,31.74,74.81,-31.62,-68.03,-1497.49
236,-29.24,12.61,34.7,43.02,7.56,30.81,24.11,-2.39,23.3,56.14,31.04,-31.12,22.96,13.21,20.28,18.48,57.7,-143.69,-189.92,-2992.56
237,-111.15,-84.27,-67.82,-51.82,-100.86,-69.59,-75.38,-77.0,-51.47,-34.94,-61.45,-103.29,-79.08,-87.45,-72.95,-73.99,-41.31,73.55,174.44,3470.31
238,-46.51,-14.03,12.33,13.49,-10.85,-13.16,0.94,-20.04,-50.21,-1.59,-8.42,-40.42,-1.77,-3.72,3.36,-1.03,37.79,49.14,67.49,947.81
239,-11.86,32.73,59.46,61.08,35.19,47.52,57.12,14.41,20.12,62.64,44.29,-8.68,49.12,38.54,41.99,39.73,82.2,-175.03,-233.5,-3998.92
240,-103.87,-67.26,-53.5,-39.43,-81.7,-50.51,-51.83,-67.2,-26.17,-13.94,-45.88,-89.56,-59.33,-73.09,-63.08,-59.76,-25.02,-12.21,56.45,1534.46
241,-82.47,-53.29,-32.8,-27.7,-55.98,-53.23,-45.89,-53.23,-66.02,-32.35,-46.94,-69.92,-42.26,-47.95,-40.87,-38.1,-1.98,134.24,178.76,3065.74
242,-3.02,43.79,70.82,69.37,47.24,48.74,55.34,21.41,8.91,59.45,46.14,0.75,62.08,52.43,51.4,55.3,95.4,-113.17,-187.57,-3446.35
243,-67.24,-27.4,-11.48,0.94,-43.66,-14.77,-18.79,-37.34,5.59,22.55,-9.04,-63.99,-15.8,-33.09,-28.44,-21.39,13.13,-111.39,-81.23,-926.21
244,-102.09,-74.95,-60.42,-49.07,-90.01,-79.03,-72.6,-71.94,-62.18,-42.12,-62.85,-88.38,-66.75,-76.53,-69.19,-63.98,-34.22,112.61,223.45,4009.52
245,-17.76,27.76,51.47,49.93,28.42,17.8,31.37,7.26,-16.53,33.31,25.54,-8.06,40.44,32.57,32.51,35.12,73.08,-25.61,-71.58,-1574.31
246,-27.58,21.38,37.43,45.72,9.52,23.69,21.53,-2.42,34.22,59.14,31.91,-18.15,31.58,13.26,12.77,23.43,54.53,-153.07,-189.34,-3068.29
247,-98.32,-67.47,-60.17,-45.49,-88.47,-74.58,-76.09,-72.78,-35.62,-26.18,-56.29,-89.5,-64.75,-80.73,-76.02,-63.18,-37.39,66.86,179.27,3418.63
248,-34.47,1.14,20.53,19.21,-1.18,-11.58,-2.66,-17.34,-35.81,6.6,-3.64,-29.33,7.25,-0.78,0.87,5.95,38.4,62.43,73.73,945.39
249,5.18,53.53,71.71,71.44,49.98,49.17,51.43,19.03,37.5,73.46,52.81,11.16,62.59,46.53,44.87,53.53,85.37,-170.29,-229.55,-4006.85
250,-82.94,-48.43,-43.26,-30.88,-70.9,-49.55,-61.65,-64.4,-8.74,-3.65,-38.59,-70.47,-49.67,-68.37,-63.58,-47.42,-25.74,-22.18,58.02,1559.86
251,-61.19,-32.01,-22.0,-19.09,-39.66,-48.15,-48.27,-50.63,-49.14,-22.5,-38.87,-50.39,-35.13,-44.4,-41.47,-28.4,-4.8,133.18,187.3,3054.25
252,24.55,65.44,82.01,75.29,69.25,55.11,55.55,23.92,28.16,68.85,53.17,17.49,69.02,56.73,50.61,67.37,97.6,-110.19,-177.97,-3418.77
253,-45.79,-8.91,-4.41,-0.25,-23.75,-7.76,-23.15,-41.01,21.3,28.43,-7.52,-48.32,-11.65,-31.9,-35.55,-9.89,13.17,-127.11,-81.97,-905.71
254,-89.32,-65.99,-61.78,-58.74,-77.07,-76.26,-80.85,-83.98,-56.51,-46.43,-70.31,-83.79,-70.3,-84.28,-84.75,-61.82,-39.65,87.14,211.55,4004.97
255,4.48,38.57,55.87,45.42,45.51,25.2,24.5,1.04,-6.62,34.12,24.65,5.38,41.4,33.56,27.0,42.63,73.69,-28.54,-69.66,-1589.02
256,-19.95,20.07,30.2,32.16,14.76,19.67,14.86,-14.62,30.53,49.7,21.59,-19.95,22.5,6.66,2.32,18.58,52.16,-149.3,-185.87,-3078.97
257,-92.49,-69.86,-65.25,-56.48,-83.58,-74.18,-73.6,-81.57,-35.68,-31.94,-62.59,-92.18,-72.84,-85.0,-83.82,-61.32,-35.92,74.61,185.99,3418.33
258,-19.04,5.4,22.93,17.39,12.53,-7.43,-5.12,-19.82,-28.18,8.34,-1.92,-20.91,8.12,3.2,1.03,10.72,48.99,83.2,83.67,916.87
259,10.14,46.53,66.21,62.83,51.94,45.2,40.5,8.87,36.31,68.12,47.02,7.62,52.48,39.84,35.78,48.59,84.38,-160.84,-222.34,-4009.3
260,-77.1,-53.24,-45.54,-36.71,-65.07,-50.58,-61.32,-71.62,-9.89,-8.52,-43.06,-71.88,-53.75,-70.29,-68.11,-52.18,-25.97,-32.62,63.04,1532.27
261,-57.07,-40.18,-27.45,-28.66,-37.29,-53.11,-48.96,-61.04,-53.92,-30.06,-45.74,-57.43,-40.22,-48.85,-48.04,-39.09,-8.51,109.21,178.32,3026.29
262,21.48,56.53,76.56,67.52,68.77,51.62,50.62,14.74,21.96,61.06,46.07,12.99,62.06,50.79,45.25,56.88,91.61,-116.2,-182.3,-3452.13
263,-50.99,-20.7,-13.23,-6.34,-27.75,-19.97,-29.35,-48.03,14.48,18.35,-15.31,-55.1,-19.62,-39.65,-39.92,-23.02,4.08,-125.52,-82.43,-880.4
264,-86.08,-70.31,-63.15,-56.65,-77.64,-79.73,-82.83,-84.27,-56.73,-49.4,-71.19,-83.7,-73.59,-85.31,-82.1,-65.89,-43.1,99.67,216.69,4017.17
265,7.72,38.45,53.87,45.8,48.88,18.84,28.55,-1.35,-4.58,31.0,21.29,2.11,42.19,29.94,24.87,40.6,68.51,-41.86,-74.79,-1525.76
266,-9.27,27.75,35.62,36.31,22.12,22.67,18.72,-12.93,40.83,51.87,23.26,-7.61,31.73,8.24,3.34,26.5,54.55,-171.58,-190.27,-3016.77
267,-87.52,-66.89,-66.16,-58.01,-80.75,-76.12,-80.37,-85.32,-33.53,-38.62,-68.52,-82.6,-69.79,-90.4,-88.75,-66.33,-44.68,57.62,176.63,3461.91
268,-19.86,3.57,15.05,8.59,11.65,-17.04,-6.86,-28.13,-31.26,-4.04,-13.67,-20.06,6.42,-7.88,-11.24,6.24,31.2,57.83,64.68,929.14
269,19.53,51.72,64.41,60.03,53.99,41.51,42.08,9.04,39.87,62.34,40.57,10.84,60.84,38.44,29.84,51.39,83.46,-135.55,-233.99,-4002.66
270,-72.95,-47.86,-48.3,-37.13,-62.93,-56.5,-65.5,-70.61,-3.57,-12.23,-47.46,-66.2,-46.46,-72.47,-74.71,-44.32,-23.85,0.74,60.43,1589.85
271,-55.88,-36.45,-30.19,-30.1,-40.12,-59.88,-50.44,-58.34,-48.89,-35.17,-49.29,-50.75,-34.12,-50.63,-52.9,-30.54,-7.69,112.88,177.3,3032.48
272,24.28,53.54,65.73,58.17,63.13,34.5,46.14,9.36,20.78,48.21,35.9,16.58,61.22,41.87,33.99,50.36,80.13,-140.66,-194.09,-3426.09
273,-57.75,-30.66,-28.27,-19.54,-41.94,-40.9,-41.51,-57.44,6.56,1.11,-29.85,-55.28,-24.15,-51.69,-53.12,-32.79,-5.8,-140.49,-93.0,-902.93
274,-107.29,-92.6,-87.55,-78.54,-102.34,-109.4,-98.05,-100.64,-75.49,-74.96,-94.88,-100.98,-87.92,-107.56,-103.58,-89.9,-66.94,82.83,198.2,4087.24
275,-20.1,3.37,22.41,19.01,16.08,-13.74,8.54,-22.4,-34.01,-2.88,-7.8,-22.04,16.87,0.69,-2.02,4.37,33.21,-60.27,-95.66,-1426.14
276,-8.74,17.36,28.32,34.27,19.57,10.86,13.08,-13.31,36.13,43.41,17.75,-11.95,30.0,2.87,-0.37,20.42,45.54,-170.52,-193.54,-2837.56
277,-57.14,-50.6,-48.8,-39.06,-53.91,-58.08,-68.45,-68.0,-12.24,-22.32,-52.49,-53.24,-44.84,-73.6,-73.9,-39.87,-30.13,76.75,185.15,3619.15
278,17.06,24.32,36.7,32.51,41.68,8.8,8.88,-6.72,-5.3,15.62,6.71,17.52,34.59,14.6,7.1,38.47,53.52,74.73,83.66,967.73
279,51.77,71.95,84.39,79.62,87.92,66.12,59.72,23.89,63.8,79.23,56.99,53.58,85.47,56.12,42.03,81.87,96.04,-173.25,-225.85,-3997.33
280,-63.17,-51.01,-49.49,-40.41,-55.43,-57.44,-65.33,-74.21,-3.16,-17.12,-51.97,-58.49,-42.49,-74.22,-80.48,-41.74,-30.48,-33.41,52.01,1544.6
281,-53.36,-46.62,-37.87,-37.47,-41.11,-68.38,-58.31,-65.65,-52.06,-42.22,-58.47,-50.23,-35.1,-56.42,-63.4,-32.43,-16.43,103.91,164.85,3019.21
282,24.44,48.14,63.0,54.76,62.2,33.32,43.75,5.97,20.95,45.92,31.36,28.44,64.55,40.95,26.68,58.2,81.08,-129.02,-198.19,-3455.77
283,-45.46,-27.17,-25.79,-18.94,-33.8,-36.77,-35.79,-56.97,15.3,6.37,-28.45,-36.31,-13.7,-47.08,-56.98,-17.29,-2.26,-133.46,-91.4,-883.75
284,-77.63,-72.18,-70.31,-65.84,-77.55,-92.9,-87.34,-89.49,-52.77,-55.41,-79.77,-74.23,-61.7,-88.34,-93.63,-60.7,-46.28,90.31,208.45,3982.53
285,6.69,24.33,38.02,28.42,36.32,-1.52,18.52,-12.12,-10.35,17.04,6.07,4.79,43.64,19.22,7.11,35.72,60.31,-52.83,-87.4,-1584.42
286,-8.92,16.17,20.06,21.09,13.72,-2.71,2.62,-21.5,37.15,39.9,10.83,-6.58,32.98,-0.22,-11.32,27.37,43.76,-176.75,-201.44,-3045.01
287,-84.48,-73.58,-77.13,-69.29,-86.59,-93.14,-95.98,-93.31,-33.21,-46.4,-76.63,-76.73,-64.49,-95.78,-100.88,-59.35,-52.18,47.99,162.05,3420.74
288,-15.58,-0.93,5.1,-1.4,5.64,-33.51,-18.24,-34.31,-29.19,-10.22,-22.4,-6.53,12.47,-10.68,-22.64,15.45,28.16,31.53,53.26,840.12
289,16.72,47.31,51.83,46.33,48.96,22.88,33.2,-1.48,40.43,53.8,29.84,15.15,63.8,31.49,16.14,57.94,73.18,-193.25,-246.59,-4021.68
290,-64.71,-47.68,-56.62,-48.15,-61.08,-69.61,-70.96,-77.54,-0.95,-17.23,-54.14,-55.77,-41.63,-75.91,-84.22,-35.79,-28.19,-28.1,46.41,1533.94
291,-45.3,-33.54,-36.43,-36.81,-34.78,-68.56,-56.88,-63.76,-42.79,-35.69,-54.08,-40.68,-30.97,-53.24,-62.45,-16.23,-5.64,95.19,164.34,2942.17
292,34.9,60.74,67.0,59.91,69.12,31.32,46.48,10.52,32.28,55.99,39.62,32.81,69.8,47.26,30.69,77.25,91.49,-114.9,-195.88,-3484.1
293,-35.67,-18.62,-21.92,-14.51,-24.67,-38.86,-24.09,-53.22,25.06,15.0,-21.96,-30.98,-13.96,-43.57,-56.2,-2.14,5.19,-106.9,-93.04,-915.9
294,-72.53,-71.09,-71.89,-65.28,-76.42,-99.44,-81.67,-89.58,-48.27,-51.81,-77.43,-62.66,-68.36,-89.34,-97.63,-44.32,-40.52,109.69,204.53,3961.83
295,17.85,30.4,43.29,36.72,43.21,-1.41,18.06,-9.1,1.05,26.01,13.63,28.02,42.05,24.97,8.36,55.61,70.37,-53.94,-88.24,-1634.79
296,-13.3,6.57,12.31,17.2,10.25,-12.17,-5.35,-29.65,32.6,35.03,4.95,-7.15,17.68,-8.63,-23.51,25.32,37.85,-192.46,-209.79,-3018.94
297,-90.68,-85.2,-86.95,-75.2,-93.18,-109.53,-99.59,-100.42,-40.95,-53.34,-82.83,-75.54,-77.15,-103.17,-110.54,-65.26,-56.49,43.86,156.9,3416.4
298,-18.58,-7.74,0.22,-0.95,1.07,-45.68,-20.72,-35.82,-27.84,-10.45,-20.9,-7.64,8.44,-12.06,-22.84,14.38,34.11,37.21,54.68,856.98
299,23.46,44.33,53.22,53.14,50.63,17.16,32.06,1.68,45.07,59.12,35.22,26.28,65.37,35.65,20.76,62.81,81.83,-195.95,-241.93,-4009.65
300,-66.72,-53.76,-57.93,-44.98,-67.63,-84.1,-75.94,-76.19,2.07,-13.92,-51.91,-56.8,-38.79,-70.56,-80.0,-36.74,-18.03,-33.98,53.02,1577.1
301,-43.82,-38.54,-37.33,-35.08,-39.0,-77.01,-60.55,-62.98,-39.71,-33.35,-52.19,-42.81,-21.78,-46.32,-58.03,-18.72,1.84,94.79,168.44,2973.85
302,34.49,55.55,62.85,58.17,63.85,12.85,38.25,8.84,33.45,56.7,37.8,37.52,80.36,51.06,31.87,74.21,98.72,-133.08,-192.72,-3448.44
303,-31.84,-13.8,-19.12,-10.93,-26.32,-39.2,-33.67,-50.93,29.64,21.43,-17.81,-26.9,-2.34,-35.72,-48.58,-4.4,14.96,-108.24,-84.19,-879.17
304,-65.77,-61.28,-66.73,-62.11,-70.78,-98.45,-84.4,-85.18,-41.69,-44.11,-72.46,-59.68,-58.3,-81.2,-88.72,-49.59,-31.08,110.18,214.9,3984.26
305,21.21,40.71,44.4,35.92,46.51,-5.17,19.55,-6.26,2.71,31.27,15.97,22.24,46.65,30.06,16.23,48.51,79.38,-52.27,-77.46,-1609.18
306,-1.44,23.8,22.63,22.52,19.87,-3.33,1.33,-23.61,40.47,46.5,13.31,-5.03,22.18,2.58,-8.57,26.43,52.65,-191.31,-194.45,-3037.77
307,-74.5,-64.84,-71.35,-64.43,-79.84,-94.95,-91.93,-89.24,-25.76,-34.14,-68.81,-71.06,-75.11,-86.6,-89.83,-56.1,-34.43,49.12,177.24,3437.47
308,-6.28,5.92,14.69,7.08,14.6,-33.44,-15.05,-26.95,-18.92,5.34,-8.44,-4.22,4.36,3.18,-5.56,23.85,51.85,64.5,71.33,869.64
309,22.42,47.77,59.92,54.43,54.28,22.87,31.78,5.06,47.47,68.38,43.28,19.89,51.56,43.31,32.89,63.97,91.84,-156.66,-224.78,-3980.2
310,-80.87,-64.98,-60.56,-50.18,-75.23,-82.61,-83.2,-81.88,-10.17,-16.08,-52.23,-80.43,-65.44,-74.59,-77.11,-47.62,-26.41,-32.8,62.95,1564.83
311,-72.64,-59.45,-47.01,-44.96,-55.46,-93.86,-71.11,-71.25,-60.42,-40.88,-54.98,-68.41,-56.76,-53.41,-55.55,-37.53,-8.93,103.72,171.45,2954.68
312,3.69,32.85,55.25,51.74,44.91,5.85,28.03,2.46,13.39,49.98,37.66,1.65,46.09,47.36,38.41,51.44,87.21,-128.8,-190.64,-3512.17
313,-71.28,-44.56,-30.23,-19.1,-53.32,-56.13,-55.12,-60.3,5.27,10.16,-21.86,-76.6,-32.07,-40.06,-44.69,-27.85,-1.83,-135.82,-85.04,-868.57
314,-101.54,-84.15,-71.14,-60.2,-91.59,-113.4,-101.35,-86.52,-56.03,-46.34,-66.71,-102.23,-74.11,-72.26,-73.19,-67.09,-36.15,105.92,219.61,3962.06
315,-8.81,20.96,48.43,46.46,30.44,-9.28,11.07,-1.69,-1.63,39.14,30.97,-13.26,40.26,47.76,39.14,36.62,80.17,-26.8,-67.66,-1627.19
316,-24.94,10.79,30.81,38.6,7.97,-11.17,-2.64,-13.19,44.59,62.35,33.73,-28.11,29.02,27.82,16.42,18.54,61.08,-165.88,-182.44,-3021.21
317,-99.67,-81.2,-67.7,-52.49,-94.92,-104.17,-102.37,-84.41,-26.59,-22.95,-53.65,-93.36,-66.25,-66.33,-74.19,-74.61,-34.1,59.0,178.21,3436.25
318,-25.0,-1.56,21.78,22.94,0.97,-40.77,-23.01,-20.58,-15.25,20.92,9.3,-27.08,20.44,27.32,9.54,8.49,57.23,56.76,72.34,866.44
319,-0.52,37.77,60.39,62.08,36.07,14.28,19.95,5.01,42.63,75.29,51.1,-2.58,63.43,59.18,34.16,39.48,89.98,-174.55,-231.38,-3986.35
320,-94.56,-68.43,-56.51,-41.33,-85.66,-88.57,-87.94,-77.56,-10.13,-5.45,-42.23,-79.25,-47.43,-57.62,-78.56,-66.72,-24.27,-18.18,59.3,1606.15
321,-70.05,-52.62,-32.95,-27.88,-54.93,-88.04,-69.39,-60.66,-51.27,-22.8,-40.32,-58.78,-30.18,-31.15,-55.17,-46.41,2.12,98.78,174.87,2980.64
322,7.75,39.4,68.6,66.64,47.05,17.89,30.73,13.23,21.43,66.25,49.7,9.5,66.71,62.35,34.64,43.58,101.04,-133.12,-186.9,-3451.27
323,-63.59,-39.86,-19.45,-7.34,-48.94,-48.34,-49.48,-49.45,8.78,21.73,-11.25,-62.59,-21.8,-32.13,-50.41,-41.21,3.91,-125.44,-77.01,-832.75
324,-101.39,-87.36,-65.91,-53.5,-92.77,-104.02,-98.35,-80.44,-62.7,-41.94,-62.86,-100.03,-75.23,-74.99,-86.76,-86.18,-45.26,103.67,222.5,3997.55
325,-8.76,18.59,52.32,51.03,32.9,-2.18,13.6,4.42,-13.6,38.37,32.44,-10.21,36.73,40.85,23.92,16.92,64.94,-31.6,-68.56,-1606.34
326,-37.8,-1.57,25.73,35.45,1.65,-8.11,-4.65,-14.15,19.13,50.32,26.77,-37.93,11.83,10.75,-4.11,-8.6,34.17,-179.53,-189.68,-2984.81
327,-112.5,-89.74,-70.39,-52.54,-98.22,-102.01,-100.11,-81.12,-50.49,-32.6,-56.13,-107.39,-86.23,-78.71,-86.0,-95.49,-55.63,56.74,180.76,3456.87
328,-44.0,-17.79,13.7,17.42,-4.84,-40.31,-22.35,-20.72,-44.74,5.9,2.98,-45.8,-7.22,10.68,-2.54,-21.04,27.66,69.39,75.83,844.5
329,-14.9,23.14,57.74,64.16,35.86,14.94,24.65,10.71,20.33,70.01,54.65,-20.56,39.81,51.81,33.77,13.08,64.05,-158.71,-224.35,-4014.61
330,-106.25,-79.86,-55.63,-34.97,-86.26,-84.85,-82.97,-70.14,-26.97,-5.62,-33.25,-101.22,-67.26,-57.78,-69.35,-87.82,-51.17,-30.81,68.07,1599.08
331,-80.39,-61.61,-28.67,-18.51,-53.64,-74.88,-66.87,-51.59,-66.84,-19.64,-27.32,-72.52,-46.15,-28.32,-41.15,-67.61,-34.42,94.85,185.84,2979.27
332,-0.52,31.43,71.94,75.5,49.25,17.53,30.64,21.59,5.27,69.53,63.36,10.14,52.82,70.01,51.44,23.47,64.06,-133.85,-174.84,-3472.87
333,-66.4,-41.24,-11.37,6.41,-40.72,-44.47,-45.25,-37.9,1.12,33.45,5.96,-52.97,-22.88,-16.77,-29.69,-47.99,-14.76,-114.82,-64.43,-850.96
334,-107.5,-94.76,-64.23,-49.91,-89.52,-102.52,-98.7,-78.63,-78.06,-40.33,-54.94,-96.3,-84.47,-69.28,-77.43,-98.85,-64.87,114.13,229.64,4004.9
335,-18.31,6.17,48.36,49.69,30.47,-6.42,9.17,1.78,-33.49,34.4,33.88,-12.74,20.17,39.92,27.21,0.26,39.85,-51.67,-64.74,-1639.09
336,-38.57,-9.77,24.63,35.49,1.9,-5.72,-6.81,-15.05,4.75,49.37,29.75,-39.51,0.39,12.07,2.36,-21.69,11.88,-177.03,-182.2,-3005.44
337,-115.82,-101.3,-72.82,-55.48,-98.1,-100.57,-104.5,-84.9,-65.88,-37.77,-58.37,-113.04,-97.35,-81.67,-84.36,-111.22,-77.07,71.14,185.17,3439.35
338,-48.41,-31.13,11.75,14.23,-9.14,-35.82,-21.36,-25.16,-62.66,-0.84,-1.97,-48.85,-16.74,4.76,-5.4,-36.67,12.26,74.11,74.83,774.25
339,-17.78,10.76,54.03,60.34,32.44,17.6,32.88,6.19,5.1,60.31,48.92,-21.84,36.04,46.9,30.02,4.57,60.57,-169.7,-226.4,-3986.23
340,-106.21,-88.81,-57.86,-38.44,-83.51,-82.3,-85.79,-74.8,-38.8,-14.52,-39.74,-104.23,-65.35,-58.4,-74.41,-91.99,-43.16,-38.46,66.16,1611.8
341,-77.65,-68.95,-28.31,-17.12,-50.34,-70.95,-68.56,-54.88,-74.09,-24.96,-30.49,-72.59,-41.0,-23.52,-42.48,-60.95,-14.61,97.73,184.24,2933.25
342,-0.78,21.71,71.41,75.07,47.23,27.7,30.05,15.86,-2.49,62.42,59.9,4.33,60.74,74.15,47.52,32.81,81.3,-125.47,-183.9,-3513.29
343,-67.27,-46.81,-7.81,9.15,-38.49,-29.96,-41.21,-40.93,-3.07,27.96,6.61,-55.29,-14.18,-7.88,-30.48,-34.68,2.21,-115.03,-67.41,-855.12
344,-109.12,-98.95,-60.57,-43.86,-89.42,-92.04,-100.5,-78.93,-78.42,-43.34,-53.33,-89.9,-72.54,-58.23,-76.85,-81.62,-52.32,98.91,223.5,3957.91
345,-19.13,1.43,51.86,55.89,28.97,7.13,4.66,0.97,-30.81,31.53,36.31,0.85,33.1,53.09,27.9,23.82,54.45,-44.49,-70.01,-1696.41
346,-41.54,-15.79,26.41,41.21,-0.37,1.7,-11.56,-16.33,8.27,45.08,31.78,-18.94,14.29,23.06,2.84,2.44,31.67,-169.73,-184.7,-2999.46
347,-113.28,-103.07,-68.29,-47.15,-97.13,-88.5,-101.46,-82.53,-59.7,-38.63,-53.59,-90.3,-76.08,-66.96,-78.42,-79.12,-53.55,71.18,184.82,3450.56
348,-43.74,-29.57,12.71,18.44,-5.97,-26.98,-23.02,-24.2,-52.04,-1.71,0.55,-18.25,4.81,15.6,3.0,-2.49,26.99,68.64,75.58,801.45
349,-12.14,14.25,55.41,63.24,37.17,18.93,19.33,6.36,13.31,59.28,50.32,13.99,54.58,54.17,41.75,39.96,75.62,-115.81,-220.78,-3989.73
350,-103.97,-87.61,-58.79,-36.68,-87.27,-74.52,-91.09,-72.51,-34.68,-18.01,-37.33,-64.32,-52.55,-56.91,-61.8,-53.58,-26.08,18.11,77.68,1665.34
351,-81.85,-67.92,-32.68,-21.08,-55.47,-66.87,-70.48,-53.03,-71.3,-31.21,-31.84,-40.74,-30.59,-25.59,-32.5,-27.69,6.56,109.96,190.07,2986.68
352,-4.78,27.8,67.92,72.58,49.22,32.72,30.23,20.31,4.69,58.68,58.85,24.57,67.97,71.81,58.34,65.17,102.57,-119.06,-171.45,-3446.6
353,-73.87,-46.0,-17.34,0.24,-40.92,-31.9,-48.08,-41.14,-3.26,18.89,-0.92,-44.13,-12.0,-14.95,-24.61,-10.21,19.31,-112.17,-56.84,-777.86
354,-107.65,-91.6,-64.25,-49.74,-85.14,-90.1,-98.67,-76.22,-71.82,-44.92,-54.24,-75.96,-61.98,-54.89,-60.48,-48.56,-21.51,110.58,232.8,4005.63
355,-22.41,9.73,44.85,45.97,33.47,2.38,11.63,0.45,-26.71,29.33,32.16,8.3,46.52,54.96,40.52,49.35,83.45,-39.64,-68.22,-1640.37
356,-38.16,-2.58,23.15,36.2,7.22,0.1,-8.11,-12.78,16.4,47.97,31.89,-13.22,34.22,32.72,17.37,31.48,67.38,-161.67,-175.1,-2965.9
357,-107.6,-87.52,-69.43,-49.51,-88.38,-88.5,-105.94,-79.51,-46.65,-31.41,-49.28,-68.98,-51.91,-53.68,-65.25,-45.03,-15.7,73.1,192.82,3484.91
358,-41.13,-19.74,11.41,16.96,1.07,-31.54,-32.74,-23.1,-44.86,2.17,4.18,-2.63,25.92,31.55,10.73,26.78,60.34,63.53,77.14,785.53
359,-3.51,27.21,59.85,67.83,44.43,29.09,19.22,13.09,28.24,68.56,59.83,26.65,81.47,76.78,51.92,70.43,108.68,-152.03,-215.59,-3974.88
360,-96.16,-77.25,-55.28,-33.46,-74.62,-79.96,-91.51,-69.74,-21.02,-10.43,-32.59,-54.55,-26.3,-37.72,-54.31,-33.29,-0.78,-1.24,77.73,1615.44
361,-76.48,-61.69,-31.7,-19.79,-43.87,-69.96,-74.5,-53.92,-62.01,-28.01,-29.67,-31.8,-12.48,-14.11,-28.95,-14.28,24.34,127.35,188.52,2990.42
362,2.39,33.37,70.08,74.69,58.27,37.93,29.93,19.82,13.06,61.18,62.06,36.32,85.98,81.92,63.27,75.23,122.63,-101.3,-171.47,-3463.44
363,-66.58,-39.08,-14.17,4.1,-34.29,-24.07,-49.74,-39.94,8.19,23.68,4.71,-27.77,3.27,-6.62,-17.07,1.46,40.12,-89.01,-58.81,-784.42
364,-99.27,-82.87,-60.25,-46.13,-77.76,-84.87,-102.75,-74.74,-62.9,-42.72,-50.97,-53.36,-51.61,-52.06,-58.42,-41.85,-6.62,124.34,233.04,3984.43
365,-13.11,15.9,49.61,51.54,38.71,14.66,6.46,2.73,-18.0,31.17,35.16,24.71,55.3,55.01,40.91,56.57,96.24,-31.63,-65.06,-1647.93
366,-26.87,7.4,31.37,42.44,14.55,16.42,-2.84,-8.63,29.65,52.62,36.96,4.58,43.78,34.04,19.01,46.25,78.24,-156.91,-173.66,-2940.05
367,-95.99,-77.34,-62.42,-45.6,-80.38,-78.01,-99.59,-77.09,-37.24,-32.01,-49.2,-58.07,-48.46,-56.72,-67.47,-35.74,-11.52,79.45,190.59,3510.5
368,-22.54,-2.45,22.32,25.7,15.89,-13.04,-25.33,-18.03,-31.34,7.18,8.59,9.35,30.04,27.77,10.63,38.0,70.16,54.01,74.2,796.95
369,10.54,40.03,65.87,70.84,56.4,41.58,26.13,14.1,34.29,68.43,59.18,40.53,79.53,65.96,46.27,76.73,107.5,-168.18,-216.5,-4002.67
370,-85.09,-68.46,-54.95,-33.85,-69.82,-70.58,-89.71,-69.58,-18.92,-12.38,-33.92,-50.5,-32.51,-48.89,-60.86,-26.94,-0.11,-12.9,75.8,1708.03
371,-64.36,-50.61,-28.61,-17.33,-41.05,-64.97,-75.11,-50.14,-57.87,-27.08,-27.7,-28.88,-12.71,-17.88,-30.19,-2.6,23.8,121.66,187.39,2938.1
372,6.92,35.3,65.59,70.22,52.97,24.8,20.14,16.71,8.83,56.71,57.21,35.23,79.6,73.17,56.63,78.24,111.53,-104.69,-179.64,-3481.46
373,-51.61,-28.58,-10.19,7.78,-30.47,-29.75,-51.19,-35.56,10.62,27.65,8.66,-18.43,9.18,-4.32,-14.14,13.36,39.61,-76.5,-58.14,-782.03
374,-88.93,-76.12,-57.21,-41.65,-74.7,-90.34,-102.42,-69.84,-60.33,-37.29,-46.07,-60.05,-43.59,-46.93,-53.46,-31.72,-5.36,128.74,234.29,3963.06
375,-15.26,12.22,45.18,48.97,28.13,-3.08,-3.35,1.94,-24.82,28.45,34.66,13.24,53.69,54.2,41.63,55.52,94.91,-34.14,-69.16,-1622.43
376,-47.53,-11.14,14.47,28.11,-13.74,-14.53,-24.97,-20.17,7.83,37.68,25.37,-17.99,26.64,19.53,10.98,26.03,66.41,-146.01,-182.86,-2785.46
377,-105.41,-84.47,-68.64,-48.54,-96.04,-98.52,-112.29,-78.29,-46.33,-34.95,-49.84,-74.47,-55.03,-60.48,-63.81,-45.85,-12.93,104.33,189.35,3700.86
378,-5.17,22.61,46.85,49.62,36.15,0.06,-7.29,5.43,-8.93,32.43,33.68,22.7,54.12,52.13,42.61,60.84,91.86,87.68,94.39,1032.3
379,45.04,83.2,105.68,106.98,92.59,74.27,54.04,45.74,72.94,106.17,93.58,70.22,114.72,103.08,86.67,112.74,144.19,-140.75,-196.42,-3810.82
380,-39.22,-15.38,-4.22,8.76,-28.16,-22.36,-57.35,-34.14,28.02,29.61,3.11,-6.44,7.63,-7.9,-19.16,16.66,37.17,11.18,101.66,1765.19
381,-22.61,-2.78,11.26,15.79,-5.95,-38.16,-45.83,-24.08,-17.6,6.98,-0.71,6.35,17.99,11.66,-0.29,31.32,52.57,141.0,206.41,2968.55
382,36.25,75.95,98.05,95.91,74.49,53.42,42.38,36.82,43.22,82.64,76.61,57.5,103.61,94.27,77.56,101.07,132.97,-90.78,-165.66,-3456.85
383,-33.95,1.72,9.66,21.12,-22.52,-17.66,-42.88,-26.62,37.09,42.71,15.87,-5.5,20.78,5.28,-4.84,19.55,47.15,-92.37,-54.22,-705.81
384,-68.46,-44.4,-38.26,-30.18,-73.25,-81.56,-93.22,-63.92,-33.81,-21.68,-38.65,-34.96,-34.28,-36.82,-44.57,-21.58,1.09,124.38,234.77,4057.99
385,26.19,63.45,75.78,72.26,51.07,14.46,12.49,18.17,19.81,60.32,54.84,41.81,79.75,76.87,61.35,81.38,110.35,-7.58,-61.43,-1588.25
386,6.52,49.83,52.22,59.41,20.69,6.26,-8.45,1.52,62.56,77.52,52.99,22.66,62.57,49.21,34.9,59.79,87.08,-143.87,-168.11,-2858.02
387,-65.61,-37.44,-44.39,-28.77,-79.97,-87.65,-105.03,-67.88,-6.91,-7.23,-33.15,-45.2,-35.78,-46.12,-53.7,-30.42,-7.18,87.64,195.94,3621.72
388,10.35,40.99,43.15,43.25,18.68,-27.32,-25.36,-6.65,2.4,34.11,27.44,19.8,45.26,42.84,28.58,46.85,79.84,63.6,77.3,907.94
389,46.87,89.49,89.83,92.07,63.07,31.56,24.77,26.82,75.4,99.32,81.37,52.45,93.72,82.52,66.07,88.32,120.43,-162.48,-214.74,-3812.31
390,-34.05,-3.17,-15.89,-1.13,-54.11,-58.9,-78.27,-47.83,36.68,30.03,-1.73,-26.04,-5.47,-21.57,-32.31,-0.54,18.94,16.18,89.37,1918.15
391,-12.87,13.75,8.56,12.28,-27.13,-55.03,-56.74,-32.96,-2.69,14.1,-0.14,-2.11,13.27,4.44,-9.99,18.12,39.3,145.51,195.01,3190.45
392,55.78,95.59,98.13,95.8,63.41,34.24,33.08,30.8,60.7,92.34,78.94,62.44,101.55,89.7,67.69,99.75,125.94,-103.87,-179.67,-3230.29
393,-15.62,22.35,14.65,26.23,-30.4,-26.05,-45.96,-28.73,55.73,53.76,20.59,1.16,23.39,3.21,-14.91,24.52,41.39,-80.06,-58.99,-507.82
394,-42.52,-19.99,-25.81,-15.03,-71.88,-78.61,-88.89,-57.68,-7.11,-5.39,-26.6,-23.99,-19.38,-31.3,-47.0,-9.98,5.52,135.88,236.84,4255.37
395,51.65,83.77,90.76,87.7,50.95,26.05,22.51,26.69,43.82,74.66,66.32,56.27,94.93,84.69,61.33,92.57,118.65,-22.99,-58.42,-1388.45
396,24.89,61.59,62.39,69.54,19.14,20.17,1.4,5.59,81.84,86.42,58.49,31.42,71.9,51.19,31.84,65.87,87.72,-156.8,-170.34,-2630.54
397,-49.9,-28.65,-35.33,-21.25,-80.85,-78.39,-92.61,-63.23,11.45,0.26,-28.9,-33.76,-23.63,-39.83,-53.01,-17.21,-3.32,78.62,196.11,3773.57
398,17.08,39.3,45.89,43.98,3.58,-18.85,-17.59,-6.63,14.59,35.99,25.46,27.86,51.61,44.23,25.72,57.3,77.79,66.54,75.47,1063.23
399,48.46,82.92,89.39,89.55,44.81,33.82,30.85,24.58,84.26,99.5,76.95,55.48,100.35,86.01,64.41,99.0,123.69,-148.18,-219.91,-3655.91
400,-46.89,-20.53,-26.94,-14.88,-75.33,-64.81,-75.19,-59.01,34.5,18.4,-16.82,-30.76,-11.72,-29.46,-44.76,-4.96,10.72,3.21,76.65,2022.33
401,-19.3,1.04,3.34,3.08,-38.86,-54.99,-53.01,-38.11,-1.71,6.9,-9.63,-7.12,8.45,2.75,-14.26,18.71,37.12,125.09,186.58,3217.12
402,62.04,97.77,106.33,98.04,63.79,45.76,42.58,36.23,76.41,99.46,82.79,66.08,112.44,101.96,77.44,109.94,135.91,-97.15,-172.9,-3169.26
403,-8.2,22.47,20.29,25.86,-32.41,-18.94,-40.02,-27.17,67.89,58.59,21.63,-0.37,30.91,11.49,-8.31,33.13,47.56,-71.84,-56.81,-435.82
404,-39.55,-20.34,-22.4,-18.97,-70.28,-78.56,-88.84,-57.5,-0.63,-2.64,-27.3,-30.21,-17.16,-26.98,-44.45,-6.31,7.09,148.5,237.52,4280.16
405,51.38,85.94,94.51,84.17,52.75,29.46,24.52,24.1,50.5,77.89,64.74,55.24,94.63,85.4,59.97,96.56,118.3,-20.08,-63.77,-1401.32
406,23.99,60.97,63.9,63.52,16.44,23.15,2.62,2.43,84.76,86.61,54.82,35.94,69.03,51.27,25.35,68.73,84.11,-148.0,-177.07,-2631.36
407,-56.06,-34.66,-38.6,-31.64,-86.94,-78.01,-93.71,-70.0,7.91,-5.31,-37.44,-47.3,-33.08,-47.81,-67.17,-23.49,-13.78,74.28,185.14,3789.16
408,1.52,29.07,37.9,30.73,-4.16,-21.45,-18.92,-16.89,3.46,23.89,11.22,7.49,36.65,29.02,3.41,44.77,58.5,43.35,62.98,1050.62
409,42.83,79.96,89.19,84.34,44.97,45.25,31.32,21.68,79.65,93.27,68.92,47.45,90.12,75.48,45.96,90.87,106.24,-155.52,-223.86,-3650.72
410,-46.43,-21.06,-20.96,-13.61,-69.74,-56.64,-72.22,-59.1,31.88,17.18,-20.48,-37.2,-13.57,-34.27,-57.56,-5.66,0.64,9.13,74.57,1991.72
411,-35.47,-9.75,-3.34,-6.61,-42.61,-56.11,-58.53,-48.41,-15.0,-5.76,-23.56,-25.91,-5.7,-16.84,-40.82,4.08,15.24,111.21,169.61,3188.3
412,48.22,88.61,100.59,91.17,66.85,43.97,39.64,26.6,62.16,86.49,68.37,51.18,96.23,84.06,52.2,98.16,113.35,-120.64,-192.39,-3268.69
413,-20.78,14.97,17.74,22.71,-27.06,-14.42,-42.68,-34.75,57.74,50.82,12.39,-19.98,19.65,-0.75,-27.06,26.53,31.09,-102.66,-71.44,-480.08
414,-57.58,-30.91,-27.94,-26.74,-69.18,-67.3,-93.46,-69.42,-13.27,-14.01,-41.48,-53.3,-31.45,-44.28,-66.95,-19.53,-16.78,120.88,213.61,4204.86
415,25.15,68.99,81.06,68.47,47.53,24.48,15.51,8.37,32.12,59.35,44.16,28.74,73.64,64.82,34.12,78.41,86.55,-40.21,-88.26,-1461.59
416,3.97,54.39,56.8,53.98,17.91,23.29,-0.17,-7.69,73.89,78.19,43.88,7.69,56.6,38.13,7.35,57.0,64.4,-162.14,-191.69,-2661.31
417,-70.27,-33.51,-40.43,-37.42,-79.66,-75.59,-99.1,-76.86,2.27,-9.9,-45.81,-62.17,-39.82,-56.15,-79.98,-29.71,-31.2,68.36,171.67,3704.61
418,-0.63,39.45,43.56,31.18,14.7,-10.27,-13.71,-17.86,4.76,26.72,11.26,2.95,35.02,27.85,-1.51,41.54,44.53,45.6,51.0,965.42
419,34.04,83.5,88.04,77.41,58.43,47.49,37.61,13.28,73.0,88.3,62.34,30.7,81.78,67.41,35.56,79.83,86.21,-181.78,-241.1,-3778.8
420,-60.75,-21.62,-26.92,-24.29,-64.97,-52.83,-78.69,-70.04,21.32,7.27,-30.31,-55.36,-28.95,-46.0,-71.71,-22.21,-24.03,-19.97,57.02,1928.34
421,-36.38,-1.2,2.52,-6.34,-28.31,-39.6,-57.3,-49.54,-16.42,-6.04,-25.05,-31.34,-7.27,-14.33,-41.9,4.96,3.07,106.44,166.93,3074.9
422,37.49,87.88,95.86,81.66,71.09,50.17,40.51,18.65,55.81,78.08,60.0,38.54,87.03,74.72,41.29,91.1,94.61,-139.27,-202.65,-3343.03
423,-25.7,15.84,13.89,12.64,-16.93,-7.44,-35.11,-40.15,53.84,42.14,4.11,-24.15,11.66,-9.76,-37.36,19.11,18.02,-117.95,-80.3,-548.84
424,-56.69,-29.91,-30.63,-34.45,-60.5,-60.66,-82.95,-74.05,-15.26,-22.71,-49.34,-49.68,-33.87,-51.61,-76.05,-20.18,-27.54,100.62,205.79,4143.61
425,34.91,76.29,88.77,69.98,65.37,43.44,33.31,11.45,35.75,59.67,46.0,40.01,76.51,61.32,30.41,82.63,83.51,-26.25,-92.0,-1587.4
426,12.93,57.41,62.61,54.4,36.48,41.66,11.21,-7.16,75.19,74.63,41.73,13.78,55.15,29.11,1.01,60.59,57.29,-152.06,-196.21,-2762.79
427,-66.23,-39.4,-40.09,-39.76,-69.35,-63.32,-91.31,-81.86,-2.48,-17.27,-50.21,-62.79,-47.33,-71.45,-91.85,-28.44,-41.7,56.24,163.42,3633.27
428,3.09,33.08,44.25,31.55,23.33,2.39,-10.47,-19.61,3.35,22.76,9.53,7.44,31.49,17.9,-7.95,49.53,44.54,44.73,44.38,827.24
429,36.32,79.57,90.94,80.64,67.98,64.83,37.0,13.6,73.5,88.26,63.59,42.66,85.09,60.68,30.11,92.39,88.77,-186.94,-244.79,-3838.65
430,-53.68,-22.02,-25.52,-20.63,-50.38,-45.45,-71.25,-68.87,23.22,9.19,-27.47,-47.51,-27.65,-53.1,-75.64,-10.29,-22.0,-36.0,55.84,1855.29
431,-30.96,-6.62,-2.58,-7.68,-21.05,-36.62,-45.31,-51.68,-19.43,-7.67,-25.07,-24.34,-6.83,-25.23,-49.82,12.82,0.45,91.32,156.87,2990.63
432,37.43,82.03,93.25,79.98,78.59,57.98,43.52,15.8,49.36,76.4,59.69,40.93,87.96,65.99,34.39,96.12,88.88,-144.04,-208.78,-3426.4
433,-39.67,-0.7,-0.23,2.69,-24.17,-16.31,-45.82,-51.08,35.26,30.0,-6.03,-30.42,0.72,-29.16,-54.38,14.94,2.42,-114.47,-90.85,-584.95
434,-58.34,-33.73,-33.28,-35.02,-50.67,-60.4,-81.36,-76.33,-25.61,-24.97,-50.54,-51.96,-39.95,-61.83,-83.06,-16.68,-33.16,134.09,204.3,4064.89
435,32.37,66.98,78.31,63.16,69.52,38.71,28.28,2.32,22.51,50.52,36.84,29.37,67.18,47.46,17.04,86.63,75.62,-30.15,-97.82,-1632.47
436,10.46,48.17,53.41,47.82,39.7,39.82,7.3,-14.59,61.47,65.09,32.05,13.93,50.05,18.74,-9.48,65.34,50.5,-177.87,-196.38,-2813.03
437,-62.92,-43.17,-44.49,-43.94,-60.81,-58.97,-92.12,-84.15,-12.73,-23.23,-56.31,-53.72,-48.91,-74.45,-96.73,-21.62,-41.46,53.33,168.47,3599.27
438,14.5,35.06,45.45,32.08,34.78,11.8,-9.01,-18.13,-1.88,20.5,7.54,20.48,35.49,17.69,-10.32,63.72,49.44,46.63,50.33,780.82
439,40.21,75.6,85.97,74.07,75.41,65.22,35.86,10.96,63.54,78.84,54.71,49.91,77.06,52.11,20.9,96.65,84.05,-171.66,-240.83,-3893.41
440,-51.53,-27.76,-27.41,-26.94,-45.49,-34.37,-67.46,-69.37,14.02,-0.48,-36.84,-43.36,-32.61,-60.31,-84.21,-3.78,-24.21,-25.82,60.09,1813.67
441,-25.53,-9.58,-0.56,-11.17,-13.44,-29.45,-44.75,-48.83,-22.87,-14.89,-31.4,-16.28,-9.82,-29.67,-54.75,22.9,3.89,93.64,163.52,2942.14
442,43.39,75.34,90.73,74.14,80.49,57.91,41.92,15.34,42.64,67.07,51.17,49.51,79.35,57.78,26.18,103.57,91.42,-144.51,-205.02,-3485.68
443,-27.16,-0.81,3.87,2.09,-12.92,-9.02,-41.65,-47.89,35.04,26.54,-8.46,-20.89,0.45,-30.87,-57.26,24.77,6.75,-125.64,-83.12,-666.29
444,-61.71,-48.07,-40.66,-44.11,-55.11,-63.19,-89.89,-79.45,-34.09,-37.21,-59.95,-48.93,-47.24,-70.51,-93.44,-14.98,-38.71,106.82,204.47,4006.01
445,30.77,55.69,74.58,58.79,68.24,37.28,21.16,4.87,17.78,42.99,33.11,32.16,63.36,43.32,12.63,88.02,71.28,-36.72,-88.96,-1733.48
446,10.57,38.68,48.73,43.09,37.27,33.2,3.11,-11.7,58.88,58.55,29.45,14.8,47.24,14.76,-15.92,66.83,47.11,-156.03,-188.77,-2842.62
447,-62.13,-50.8,-46.76,-45.38,-59.96,-63.97,-93.0,-78.84,-12.94,-27.2,-56.65,-46.06,-46.62,-76.46,-101.3,-15.18,-41.59,74.9,176.31,3549.14
448,6.98,21.69,38.1,24.78,35.21,-2.39,-13.34,-17.6,-8.44,10.32,1.05,15.22,31.87,9.4,-20.17,58.45,37.81,37.98,53.45,746.8
449,33.62,64.71,82.93,71.37,74.8,59.28,40.14,16.41,60.57,74.23,53.25,49.69,82.08,51.41,17.65,100.22,82.05,-168.59,-234.16,-3938.52
450,-58.29,-40.44,-32.36,-30.69,-44.4,-40.78,-71.99,-65.8,10.18,-6.46,-39.63,-38.14,-28.64,-61.62,-88.92,-2.5,-25.52,-6.99,66.63,1765.84
451,-36.26,-21.16,-6.9,-15.49,-14.08,-37.6,-57.15,-49.52,-31.51,-23.72,-36.33,-10.18,-10.63,-34.39,-62.62,18.22,-3.45,116.08,167.28,2898.49
452,33.31,67.59,89.12,73.13,80.48,59.2,41.8,18.98,38.48,62.41,50.49,48.33,80.17,57.36,21.8,99.53,84.34,-132.79,-197.1,-3489.75
453,-30.85,-1.86,6.47,5.95,-9.16,-3.76,-37.81,-38.59,37.76,28.38,-2.91,-10.64,9.1,-23.39,-53.5,29.22,7.61,-116.37,-72.04,-669.07
454,-60.41,-49.9,-39.04,-40.85,-53.43,-63.03,-86.54,-70.35,-35.02,-36.93,-55.71,-45.11,-41.87,-63.54,-90.42,-15.15,-39.48,108.42,212.33,3975.97
455,26.41,54.54,77.28,61.48,67.67,41.18,35.94,15.32,17.21,44.77,39.27,30.73,69.98,53.62,16.69,85.97,72.19,-46.06,-80.57,-1727.38
456,-2.14,35.95,51.69,47.18,34.52,35.3,12.66,-1.32,56.82,60.57,36.58,19.66,51.54,25.11,-9.82,61.3,47.55,-178.52,-177.06,-2856.95
457,-79.37,-57.68,-48.68,-45.71,-69.38,-65.2,-92.57,-73.51,-19.48,-28.79,-53.86,-57.63,-45.0,-70.83,-98.68,-32.07,-53.13,50.05,178.92,3556.68
458,-11.24,13.32,34.23,24.09,22.29,-5.99,-11.73,-15.07,-15.26,7.98,2.95,-0.78,32.42,14.91,-19.32,39.02,26.1,36.56,53.28,683.41
459,27.66,63.21,83.12,75.62,67.09,56.11,40.75,21.84,60.21,77.45,59.27,42.27,84.75,59.46,21.07,89.06,75.71,-161.75,-229.42,-3951.52
460,-60.1,-37.13,-28.21,-23.82,-50.72,-43.44,-63.09,-56.88,13.61,0.96,-30.16,-33.62,-19.36,-49.11,-81.89,-4.34,-26.7,-3.57,73.06,1753.22
461,-45.99,-25.02,-7.96,-14.15,-25.66,-41.75,-45.44,-42.36,-31.1,-20.37,-32.15,-20.67,-7.74,-27.34,-59.4,8.8,-9.25,109.45,172.87,2880.83
462,33.96,63.86,87.61,74.9,75.34,54.2,50.16,25.53,40.6,65.5,53.82,42.87,87.65,64.16,25.05,87.82,80.72,-116.21,-191.34,-3539.02
463,-40.73,-14.5,-3.46,0.68,-23.0,-16.03,-34.24,-38.12,30.59,23.03,-7.34,-24.22,5.81,-27.07,-60.63,6.12,-5.65,-107.0,-70.0,-681.66
464,-70.74,-54.39,-42.67,-41.01,-59.13,-70.18,-77.38,-65.02,-31.37,-33.49,-53.67,-43.27,-34.21,-59.7,-89.85,-23.63,-42.93,102.71,221.46,3979.93
465,19.85,43.76,67.73,55.91,56.74,25.49,29.89,14.59,17.05,42.24,35.21,37.54,72.93,51.22,13.98,70.04,65.22,-55.05,-79.01,-1749.58
466,-3.67,24.93,40.72,39.61,21.75,19.86,7.89,-4.49,56.87,56.72,30.36,15.35,54.94,22.22,-14.89,46.73,39.11,-173.72,-178.12,-2860.94
467,-76.64,-62.72,-53.33,-48.36,-70.97,-77.6,-79.17,-70.23,-10.81,-26.59,-54.09,-48.11,-37.27,-67.22,-97.91,-35.75,-50.68,66.48,190.53,3543.71
468,-6.86,9.91,31.5,23.76,23.18,-14.62,-11.06,-10.54,-4.78,11.64,4.72,25.44,39.82,18.37,-17.94,36.76,27.95,38.98,66.61,687.16
469,26.13,57.24,77.84,74.18,63.49,47.23,28.93,23.97,67.28,77.72,60.8,52.96,94.32,62.26,23.09,78.1,72.83,-182.66,-215.13,-3964.13
470,-58.84,-40.35,-32.6,-22.68,-51.93,-52.45,-75.75,-54.13,22.55,3.34,-26.73,-35.69,-11.02,-47.44,-77.88,-20.41,-33.11,-2.96,87.82,1791.14
471,-36.26,-22.17,-5.06,-6.12,-20.82,-46.7,-55.73,-34.68,-17.45,-10.51,-20.82,-5.49,9.83,-17.7,-49.73,3.27,-5.94,129.9,186.59,2857.86
472,42.35,70.01,93.32,85.94,79.81,49.7,41.53,36.05,58.24,79.77,68.36,65.18,105.0,77.17,37.74,90.02,85.77,-112.96,-178.93,-3592.93
473,-27.62,-5.08,5.93,12.99,-17.26,-14.28,-38.45,-25.91,50.91,38.67,8.24,-5.35,21.94,-13.48,-46.11,8.44,-3.35,-104.06,-51.08,-894.35
474,-57.75,-46.81,-35.43,-31.91,-57.06,-71.38,-84.36,-56.94,-16.36,-23.75,-42.68,-28.88,-26.62,-52.06,-82.55,-35.77,-45.31,104.69,235.13,3669.14
475,32.22,58.89,79.08,72.01,64.03,32.93,27.28,26.42,36.85,57.89,51.24,56.8,80.93,61.82,25.71,63.45,64.18,-38.58,-67.37,-1928.65
476,1.78,30.04,43.87,48.17,21.77,15.51,3.82,2.4,68.37,65.08,38.75,22.6,49.66,21.97,-9.76,26.37,29.11,-150.94,-170.29,-2899.96
477,-85.64,-74.83,-64.6,-53.93,-94.98,-91.65,-96.28,-74.93,-17.77,-33.9,-59.24,-64.38,-60.42,-82.36,-107.56,-75.88,-75.23,52.08,183.71,3447.46
478,-27.34,-9.7,13.45,11.33,-9.76,-36.53,-20.17,-19.37,-19.74,-1.93,-6.45,-1.99,10.54,-2.64,-32.01,-11.65,-1.28,14.77,54.66,489.46
479,26.11,59.36,78.22,79.7,56.38,43.27,43.61,32.7,73.09,83.41,66.23,43.85,82.61,59.12,26.83,49.47,60.41,-179.03,-213.43,-4057.75
480,-29.27,-8.64,-4.35,7.72,-22.28,-24.82,-45.98,-21.87,58.73,36.85,5.78,-0.88,6.43,-20.08,-47.48,-15.28,-14.59,-1.11,113.26,1772.77
481,10.07,19.81,28.97,28.84,22.98,-10.27,-24.08,0.96,27.42,29.68,16.88,40.0,36.27,16.62,-12.0,16.16,17.1,133.44,216.83,2655.38
482,76.58,99.93,113.23,109.42,111.45,69.1,66.14,62.06,90.32,105.5,94.39,91.81,121.1,99.01,65.77,87.76,98.1,-113.25,-153.41,-3895.82
483,-16.73,6.63,9.33,22.39,-5.79,-6.64,-19.29,-10.63,64.72,47.77,18.0,7.02,19.15,-7.35,-32.77,-14.28,-5.19,-96.43,-38.67,-899.38
484,-59.1,-48.69,-44.85,-33.32,-58.55,-74.57,-69.8,-46.99,-15.19,-25.69,-42.62,-49.66,-41.08,-58.45,-78.17,-68.6,-55.24,120.36,239.12,3754.7
485,32.59,54.52,71.32,71.09,61.55,29.46,41.75,38.21,35.76,55.11,50.69,38.83,68.37,54.97,25.73,31.35,56.0,-42.26,-57.43,-2046.97
486,3.52,33.27,44.01,54.7,26.84,24.41,26.78,19.78,71.25,65.48,43.26,16.24,44.99,21.22,-7.73,1.58,23.83,-183.33,-158.03,-3136.07
487,-70.71,-57.26,-53.16,-36.63,-72.38,-75.07,-66.37,-47.82,-2.02,-23.93,-44.58,-63.84,-52.18,-73.17,-95.42,-87.64,-68.28,56.43,203.51,3336.04
488,-3.37,13.23,30.4,32.78,17.09,-12.61,5.33,9.71,1.15,11.68,11.98,0.05,24.89,11.76,-17.77,-16.99,12.53,36.95,71.17,450.05
489,23.27,51.44,68.42,76.26,53.29,35.84,44.35,38.46,67.07,70.28,59.54,27.72,68.61,47.1,14.86,18.42,54.54,-178.21,-211.78,-4192.62
490,-70.47,-55.4,-47.09,-23.63,-71.9,-66.73,-64.16,-41.42,16.17,-10.23,-30.91,-57.28,-38.93,-66.44,-91.26,-83.34,-55.93,-13.72,95.23,1589.54
491,-43.38,-32.67,-16.52,-2.12,-36.56,-57.49,-39.91,-17.95,-19.83,-20.58,-20.79,-28.64,-11.53,-31.13,-56.72,-51.47,-23.69,118.16,193.28,2692.9
492,23.51,50.2,75.37,85.59,54.97,31.62,58.72,50.27,47.74,62.38,63.57,39.77,78.46,57.93,26.98,35.66,67.85,-129.07,-175.46,-3703.57
493,-44.62,-26.8,-10.29,13.78,-38.21,-31.19,-19.21,-9.64,40.09,20.29,3.76,-34.87,-3.85,-31.01,-54.89,-42.73,-15.34,-114.08,-45.59,-797.42
494,-75.1,-70.34,-53.06,-31.8,-78.3,-85.83,-67.99,-42.14,-28.68,-42.05,-47.74,-64.34,-49.64,-68.52,-87.43,-77.59,-52.96,116.03,240.57,3800.64
495,16.16,32.28,61.63,68.57,44.14,19.35,41.22,37.04,23.32,37.97,42.7,23.73,58.94,43.34,19.48,22.29,56.25,-51.64,-61.62,-1933.18
496,-5.48,10.59,32.36,46.83,13.11,8.75,20.68,15.82,60.98,50.11,33.26,-0.97,38.15,12.02,-11.28,-3.87,27.78,-171.84,-161.59,-2975.22
497,-85.71,-81.09,-66.86,-45.1,-89.32,-89.44,-83.59,-55.79,-14.81,-38.85,-55.22,-80.38,-61.14,-81.25,-97.87,-89.65,-63.09,56.39,202.69,3397.49
498,-11.15,-3.57,22.81,30.83,8.06,-16.94,-1.42,7.2,-2.54,4.9,7.02,-4.2,22.23,11.67,-12.25,-6.27,25.85,36.19,73.66,523.2
499,20.25,36.49,64.84,74.25,47.35,33.68,52.35,38.04,65.01,66.83,57.08,23.65,66.75,50.71,22.6,36.39,67.06,-182.78,-214.49,-4085.5
500,-70.87,-65.12,-47.11,-24.99,-73.33,-62.47,-56.83,-40.56,14.94,-10.5,-32.16,-60.66,-38.84,-59.3,-81.85,-60.25,-39.87,-17.16,91.17,1688.61
501,-44.55,-46.66,-18.36,-5.96,-39.02,-54.6,-40.94,-21.97,-23.16,-22.93,-23.65,-34.59,-15.56,-26.96,-52.32,-30.41,-15.55,121.34,185.13,2700.64
502,25.01,39.48,76.11,84.95,54.0,35.26,54.07,47.76,48.24,63.72,64.04,27.03,78.88,67.4,35.97,56.61,79.78,-126.86,-177.62,-3681.4
503,-47.74,-36.63,-10.89,10.81,-45.97,-29.93,-19.88,-13.4,36.84,21.38,2.42,-38.41,-5.93,-21.11,-46.44,-19.93,-4.37,-122.14,-52.08,-747.31
504,-84.26,-81.85,-54.4,-35.79,-84.88,-86.71,-61.29,-45.49,-36.39,-41.74,-48.16,-70.82,-54.47,-58.83,-81.69,-65.22,-46.92,94.7,228.41,3822.3
505,8.93,21.24,58.07,63.91,35.36,14.74,41.58,34.2,13.73,37.83,43.91,11.43,55.19,55.71,21.64,34.1,59.86,-48.37,-76.02,-1910.69
506,-9.03,6.09,36.24,51.78,7.93,16.05,17.68,17.78,56.28,56.62,41.18,-11.32,38.1,30.66,-5.03,13.15,36.77,-147.58,-169.46,-2935.78
507,-87.92,-84.55,-61.72,-39.13,-93.3,-80.52,-76.47,-52.29,-18.54,-31.06,-49.36,-79.27,-54.98,-61.48,-93.93,-71.46,-56.38,83.33,195.09,3491.98
508,-27.19,-14.95,18.71,26.86,-5.87,-20.69,4.02,4.65,-17.8,3.33,5.59,-20.44,17.89,22.08,-16.18,4.19,23.08,54.71,69.74,564.38
509,6.96,28.29,62.45,72.46,33.19,38.7,53.36,36.46,52.85,67.2,56.42,1.81,67.79,60.64,20.63,45.61,65.46,-182.94,-214.06,-3998.37
510,-87.28,-76.03,-55.73,-32.51,-84.52,-67.81,-56.25,-48.31,-3.41,-17.67,-40.72,-83.4,-47.37,-57.91,-87.38,-55.25,-47.97,-13.45,83.7,1754.93
511,-62.1,-53.57,-28.4,-17.2,-46.44,-55.76,-34.74,-29.42,-44.71,-33.47,-37.08,-59.28,-31.91,-32.54,-60.37,-32.22,-25.21,95.43,179.85,2786.15
512,13.84,36.89,69.33,73.4,49.68,41.19,60.68,40.27,28.02,53.1,50.26,22.11,67.17,60.96,26.83,60.87,68.62,-147.13,-183.16,-3632.26
513,-60.12,-40.47,-19.57,-1.18,-50.04,-31.58,-20.18,-22.08,18.93,9.53,-10.77,-45.72,-15.13,-26.94,-55.77,-13.08,-11.76,-115.81,-53.69,-695.09
514,-86.38,-79.01,-60.32,-44.32,-87.26,-83.73,-61.57,-49.89,-48.39,-51.6,-58.37,-80.73,-58.27,-62.2,-88.83,-52.51,-49.28,94.82,227.89,3884.63
515,-0.11,17.02,49.1,53.98,30.31,10.6,42.35,28.46,-1.99,23.07,29.46,2.09,45.48,47.23,13.9,42.6,52.61,-63.34,-79.6,-1861.02
516,-29.22,-7.83,17.36,32.21,-8.8,0.32,17.22,6.8,33.29,32.55,19.46,-23.96,20.15,12.46,-18.57,15.76,23.1,-174.64,-177.7,-2867.23
517,-110.4,-98.66,-81.24,-60.93,-107.98,-96.87,-77.62,-65.12,-44.55,-58.56,-71.23,-101.46,-84.1,-84.12,-108.45,-72.88,-68.63,59.62,187.64,3510.14
518,-40.32,-21.57,6.63,11.14,-11.9,-29.17,6.65,-2.77,-37.1,-18.39,-10.67,-37.64,-5.14,3.82,-25.28,4.88,16.93,44.08,59.09,546.75
519,-9.38,19.26,48.03,55.36,26.4,26.67,53.28,27.65,28.98,42.14,37.7,-11.24,37.75,38.91,7.9,41.72,59.57,-168.31,-222.19,-4006.88
520,-101.6,-83.13,-66.38,-45.83,-91.99,-73.96,-63.86,-54.54,-24.84,-39.12,-55.03,-98.66,-77.19,-76.67,-99.73,-58.34,-52.23,-5.79,82.54,1778.98
521,-75.67,-61.5,-35.66,-25.76,-55.09,-65.51,-37.74,-31.6,-62.39,-51.39,-46.73,-65.38,-54.73,-44.22,-67.84,-32.14,-24.39,117.63,180.89,2770.31
522,2.64,27.54,60.0,65.03,41.93,32.53,58.81,38.96,10.39,34.51,40.83,6.57,40.34,46.99,16.75,56.0,70.99,-118.01,-183.99,-3580.59
523,-66.7,-46.3,-27.99,-8.27,-51.43,-34.88,-24.53,-23.16,2.46,-7.58,-20.14,-68.47,-41.57,-42.48,-68.09,-23.38,-16.44,-109.1,-55.71,-653.78
524,-97.81,-92.14,-74.23,-55.37,-93.02,-93.47,-72.49,-56.46,-71.0,-73.34,-74.35,-95.39,-89.86,-84.77,-106.79,-64.72,-60.34,89.27,223.41,3926.77
525,-8.94,14.68,44.25,50.02,30.33,11.54,42.15,28.08,-17.75,10.2,22.28,-5.59,24.75,32.44,6.31,40.08,53.12,-47.81,-77.88,-1830.0
526,-43.84,-9.89,10.64,27.02,-8.35,-3.54,19.31,5.57,15.03,17.48,11.77,-45.36,-4.62,-4.55,-27.48,9.09,16.72,-176.75,-176.92,-2821.24
527,-115.06,-93.49,-81.43,-58.18,-98.33,-98.64,-76.12,-58.44,-54.56,-65.42,-70.93,-103.09,-98.09,-92.25,-106.94,-71.59,-68.54,56.55,189.93,3561.81
528,-43.12,-16.51,7.18,14.9,-4.75,-25.68,1.89,1.77,-47.68,-25.4,-11.68,-42.75,-19.09,-4.81,-21.75,4.25,15.69,39.34,60.56,616.44
529,-14.53,25.09,47.19,56.32,31.66,27.11,49.04,29.06,19.46,34.96,36.42,-13.39,23.7,32.28,12.29,42.68,58.75,-174.63,-221.77,-3911.96
530,-103.27,-77.85,-68.04,-48.66,-88.5,-81.39,-53.27,-52.53,-33.47,-46.01,-56.89,-95.61,-85.03,-76.75,-89.6,-53.82,-42.08,-9.48,87.54,1840.12
531,-81.97,-59.34,-41.29,-34.99,-56.74,-69.61,-37.18,-36.58,-72.91,-60.74,-53.23,-82.62,-65.72,-45.51,-63.34,-32.88,-19.28,113.7,180.01,2834.9
532,-5.23,33.53,57.3,56.92,49.2,29.19,52.99,31.85,3.19,27.82,35.1,-3.33,31.65,51.17,24.21,54.85,80.48,-111.51,-179.01,-3576.95
533,-75.27,-42.93,-31.41,-18.0,-47.97,-38.3,-28.78,-30.66,-4.98,-14.17,-26.23,-71.65,-49.74,-37.48,-60.92,-21.23,1.24,-96.48,-49.11,-595.75
534,-104.23,-86.93,-75.33,-63.93,-87.96,-90.74,-74.62,-63.19,-78.14,-79.33,-80.14,-101.62,-94.51,-79.24,-100.83,-61.98,-42.9,134.33,225.86,3945.74
535,-15.65,11.92,36.38,36.5,31.9,8.68,36.58,19.18,-29.0,-1.29,11.08,-19.42,13.43,29.85,0.07,35.76,62.22,-22.84,-79.18,-1812.27
536,-39.24,-2.45,12.37,22.72,2.88,0.84,21.54,3.82,14.39,16.14,9.48,-47.35,-2.34,4.22,-26.89,16.82,38.99,-151.36,-167.85,-2818.42
537,-111.45,-92.35,-84.55,-67.22,-98.66,-92.68,-75.29,-65.35,-58.94,-70.99,-77.83,-110.22,-95.02,-86.09,-111.51,-67.91,-52.89,64.73,192.27,3573.43
538,-38.07,-14.43,5.88,8.68,-2.15,-21.04,4.28,-0.98,-49.42,-27.44,-15.0,-35.2,-12.28,4.72,-24.8,10.43,30.2,56.49,61.05,606.57
539,-2.94,29.84,49.04,55.83,40.3,33.18,52.54,31.4,19.83,35.76,36.64,-11.43,34.42,43.12,13.24,49.01,71.07,-162.74,-215.22,-3936.62
540,-100.62,-74.8,-67.36,-46.55,-80.51,-68.74,-60.3,-51.28,-33.08,-46.51,-56.65,-99.38,-77.97,-70.75,-90.11,-52.5,-40.94,-23.18,88.52,1838.17
541,-76.08,-57.75,-41.34,-30.66,-48.24,-64.56,-40.71,-32.3,-72.64,-62.39,-51.82,-73.05,-57.77,-39.3,-57.79,-29.56,-16.59,108.86,183.08,2818.04
542,10.44,34.7,58.58,61.56,57.23,32.9,61.66,38.77,4.68,28.51,38.18,6.91,42.12,57.01,32.63,64.15,81.27,-101.63,-175.94,-3544.27
543,-66.38,-46.14,-32.11,-14.92,-42.3,-36.1,-18.47,-25.08,-7.2,-16.85,-26.92,-65.75,-38.69,-33.44,-54.57,-15.95,-4.26,-86.06,-44.62,-608.94
544,-101.36,-90.32,-73.75,-59.62,-81.32,-89.6,-68.51,-56.3,-74.92,-77.63,-77.23,-98.13,-83.82,-69.77,-90.25,-55.34,-41.14,125.32,235.54,3937.67
545,-10.26,11.33,38.72,41.18,37.43,10.47,40.96,23.35,-24.21,1.81,13.86,-7.84,24.78,42.54,15.01,43.87,68.26,-28.03,-74.37,-1825.56
546,-32.35,-10.11,9.58,22.29,-2.16,3.75,23.21,5.2,15.39,14.94,6.93,-31.84,2.44,11.15,-16.25,21.32,41.94,-155.14,-167.8,-2792.87
547,-104.02,-98.01,-86.57,-67.89,-100.23,-92.73,-74.7,-62.21,-57.54,-72.42,-79.72,-101.64,-89.67,-80.05,-102.03,-61.18,-48.13,77.83,195.6,3556.5
548,-34.32,-18.94,3.33,8.07,-4.73,-23.77,12.86,3.07,-46.05,-28.83,-16.27,-34.77,-2.05,11.46,-16.61,16.67,39.84,59.2,66.64,596.93
549,-4.28,25.76,47.04,53.44,35.36,29.76,56.66,34.09,24.7,35.18,35.72,1.67,43.17,49.81,19.02,57.95,85.37,-143.37,-213.1,-3932.92
550,-92.35,-75.76,-67.56,-47.54,-85.77,-71.04,-62.74,-48.96,-27.7,-45.94,-57.49,-82.85,-69.02,-64.29,-86.74,-45.7,-27.14,17.6,91.96,1860.26
551,-65.35,-51.68,-36.47,-27.5,-47.95,-60.78,-35.41,-28.06,-63.8,-57.06,-49.43,-55.18,-43.83,-31.7,-55.12,-20.58,-1.41,130.64,182.75,2826.89
552,9.41,35.39,57.8,58.3,47.29,34.76,61.7,37.83,9.11,28.05,34.68,6.11,48.94,55.26,26.68,64.24,82.33,-104.47,-181.89,-3536.7
553,-63.77,-44.61,-33.13,-18.58,-50.68,-36.92,-25.47,-27.57,-3.27,-16.23,-30.58,-56.98,-34.75,-35.61,-59.24,-15.37,-5.63,-91.02,-47.15,-555.23
554,-92.8,-86.77,-71.97,-60.43,-88.53,-90.22,-70.92,-57.63,-70.29,-76.03,-78.67,-87.04,-80.1,-70.5,-90.22,-49.69,-38.06,126.85,235.38,3974.47
555,-1.03,15.37,41.74,39.48,31.44,12.75,47.64,23.66,-19.07,3.25,11.8,-1.55,31.03,40.39,13.39,50.51,71.32,-39.09,-75.32,-1790.82
556,-31.59,-11.46,10.15,17.75,-10.33,-0.4,23.53,1.19,14.98,11.64,1.49,-23.78,6.64,7.06,-18.94,24.22,40.86,-157.99,-169.82,-2761.7
557,-107.39,-102.41,-89.03,-73.59,-109.32,-97.18,-77.43,-70.6,-62.03,-78.35,-88.52,-96.44,-91.79,-86.92,-108.89,-64.2,-52.11,75.16,187.35,3594.77
558,-40.01,-30.96,-4.53,-0.84,-17.27,-31.29,5.49,-9.75,-58.42,-41.24,-30.26,-35.13,-13.89,-0.06,-28.37,10.68,28.44,54.87,52.28,587.75
559,-13.52,9.0,36.26,44.47,18.9,22.55,53.02,23.06,10.52,20.85,19.55,-4.76,32.23,37.68,6.71,51.21,71.69,-161.33,-224.44,-3906.82
560,-93.32,-91.01,-73.31,-52.07,-96.19,-75.7,-54.99,-53.02,-38.25,-54.73,-67.81,-84.33,-71.71,-70.75,-93.74,-42.59,-27.9,7.11,87.37,1884.11
561,-66.82,-70.29,-42.44,-31.95,-61.79,-66.26,-34.2,-33.19,-74.01,-64.36,-57.67,-51.87,-48.17,-36.79,-61.94,-15.41,5.31,139.84,178.36,2828.42
562,3.54,19.05,53.23,57.65,33.89,28.58,61.89,34.99,0.92,22.89,30.23,18.6,48.5,54.5,24.17,71.98,97.07,-109.62,-186.24,-3568.44
563,-65.39,-57.23,-34.45,-16.97,-60.93,-39.25,-16.51,-27.47,-7.62,-17.96,-32.02,-55.45,-34.79,-36.88,-60.12,-7.19,8.37,-86.32,-54.89,-563.91
564,-102.19,-98.92,-75.33,-62.28,-102.2,-92.13,-65.76,-58.74,-77.7,-79.67,-83.45,-79.69,-80.67,-75.28,-96.24,-45.4,-31.88,130.74,223.55,3958.56
565,-14.71,8.61,39.7,38.6,18.35,8.72,38.52,19.43,-25.6,0.22,7.13,2.24,27.91,34.32,5.07,54.89,75.17,-20.36,-88.24,-1847.88
566,-44.17,-13.8,9.49,14.84,-20.55,-2.8,16.29,-6.05,8.4,10.19,-3.67,-26.17,2.69,-2.35,-30.56,25.45,38.39,-136.22,-177.96,-2775.25
567,-115.56,-100.5,-82.51,-72.45,-115.41,-93.68,-77.33,-73.59,-62.36,-74.51,-88.66,-93.64,-88.62,-92.31,-114.42,-57.62,-53.6,87.84,188.09,3604.31
568,-40.03,-22.6,9.02,4.76,-15.45,-22.37,6.88,-9.95,-49.76,-28.37,-25.11,-14.0,-3.66,0.87,-26.68,24.97,35.17,48.95,49.01,578.66
569,-5.11,17.31,50.91,49.26,21.64,32.03,53.63,20.08,20.83,35.53,25.5,11.46,45.39,40.24,9.32,68.24,78.3,-171.52,-230.01,-3936.42
570,-102.39,-90.28,-66.02,-55.14,-102.74,-71.02,-62.27,-65.43,-34.36,-48.89,-70.16,-75.36,-66.71,-75.4,-99.39,-36.58,-36.2,-17.5,72.82,1891.3
571,-75.2,-63.26,-30.06,-29.38,-62.38,-54.25,-33.11,-38.38,-64.14,-55.59,-56.07,-44.84,-39.12,-36.23,-62.78,-9.12,-3.8,114.61,166.97,2775.5
572,5.8,31.09,69.35,66.05,39.25,41.97,65.18,34.6,16.6,36.86,35.05,23.81,61.77,60.19,25.66,80.12,92.67,-105.52,-189.99,-3557.41
573,-73.71,-44.76,-21.91,-11.45,-61.05,-26.05,-20.73,-32.36,2.63,-9.79,-30.81,-44.56,-22.67,-33.82,-62.69,-0.45,3.39,-89.98,-59.26,-548.36
574,-108.03,-83.16,-62.47,-54.81,-95.89,-79.5,-64.52,-61.75,-65.13,-71.87,-78.67,-65.28,-67.48,-71.04,-97.87,-37.78,-37.43,136.68,218.71,3957.49
575,-19.94,17.01,50.13,45.14,21.74,18.12,42.86,17.95,-16.65,6.04,10.09,9.47,40.44,38.27,4.37,57.97,69.09,-28.26,-88.48,-1850.58
576,-43.79,-2.6,23.47,27.01,-10.78,14.09,22.01,-2.64,22.07,19.13,3.08,-11.25,17.63,6.01,-28.12,34.38,37.94,-162.91,-176.46,-2752.02
577,-122.23,-96.99,-76.97,-67.86,-112.7,-87.83,-74.86,-77.33,-56.19,-72.22,-88.38,-89.99,-77.91,-89.29,-118.27,-57.47,-59.48,63.12,178.12,3619.23
578,-70.28,-32.04,1.18,-5.38,-29.9,-33.25,5.17,-23.99,-56.74,-40.61,-38.82,-37.47,-7.43,-11.95,-44.07,6.04,13.49,31.2,30.88,677.71
579,-45.65,3.42,38.0,33.92,3.61,15.54,44.65,2.66,7.2,16.99,6.34,-10.72,31.38,18.33,-16.94,37.91,45.25,-175.99,-254.16,-3746.69
580,-96.94,-69.62,-46.4,-38.31,-80.22,-53.07,-48.92,-54.93,-13.17,-34.24,-58.41,-54.86,-48.15,-66.56,-96.44,-29.29,-35.9,7.31,80.45,2085.36
581,-39.59,-21.07,7.4,0.02,-11.86,-15.65,-6.71,-18.57,-27.27,-24.36,-31.87,-10.78,-4.24,-14.72,-48.3,20.66,9.95,142.06,180.97,2964.66
582,28.81,68.3,102.5,86.26,89.72,80.7,90.32,47.5,43.43,61.31,52.73,51.69,88.38,73.22,34.51,102.1,97.12,-110.76,-186.84,-3511.66
583,-56.55,-17.25,6.34,3.09,-18.88,5.29,-5.31,-23.24,26.63,10.08,-17.77,-19.81,-3.92,-25.73,-57.94,16.33,5.08,-105.74,-58.82,-548.65
584,-110.73,-79.17,-54.72,-56.72,-78.19,-70.48,-72.17,-69.32,-62.91,-70.93,-84.51,-65.19,-70.71,-80.68,-108.8,-42.93,-53.18,99.01,205.4,3914.57
585,-19.46,21.4,57.38,42.69,39.44,29.11,40.26,10.68,-11.86,9.24,7.55,12.74,39.25,30.65,-4.25,57.65,56.3,-60.21,-102.46,-1864.73
586,-39.17,3.2,29.71,23.66,6.39,22.25,18.18,-9.02,25.93,22.08,0.07,-9.31,15.8,-1.33,-36.03,34.36,29.6,-164.95,-190.67,-2772.45
587,-114.56,-80.6,-64.68,-63.73,-89.0,-72.98,-76.8,-75.64,-45.63,-62.15,-85.35,-72.05,-76.02,-91.92,-120.46,-49.54,-58.48,76.84,173.09,3598.16
588,-40.14,2.64,30.64,14.91,14.27,2.78,8.44,-10.04,-31.5,-14.52,-19.09,-6.49,12.26,2.06,-33.61,34.37,30.1,59.98,41.74,539.55
589,-3.13,49.42,73.04,60.97,55.03,58.89,54.48,21.96,40.61,49.15,31.03,22.86,59.97,40.55,2.52,75.48,69.45,-154.19,-233.2,-3953.15
590,-98.25,-57.98,-48.04,-47.35,-69.02,-48.58,-60.8,-67.37,-18.23,-37.99,-67.97,-64.88,-59.24,-80.1,-109.45,-33.78,-46.5,-18.07,65.5,1903.78
591,-72.65,-35.66,-16.41,-27.3,-30.53,-35.58,-33.08,-47.02,-55.27,-50.07,-59.94,-38.77,-34.55,-46.19,-78.93,-6.03,-19.41,100.95,152.68,2776.5
592,5.98,54.77,79.51,61.86,69.43,58.71,61.39,21.2,20.49,38.15,27.1,30.25,65.56,47.03,6.27,80.34,73.76,-140.88,-210.08,-3546.57
593,-65.76,-25.75,-12.23,-15.59,-29.82,-11.39,-22.51,-44.99,7.32,-7.02,-38.46,-39.6,-20.63,-46.88,-82.02,-4.17,-15.08,-122.62,-79.01,-528.39
594,-99.6,-66.73,-50.24,-58.46,-67.34,-61.31,-62.89,-73.29,-57.28,-65.08,-84.52,-62.13,-61.31,-79.36,-112.65,-35.92,-49.39,100.23,202.41,3948.5
595,-10.03,34.78,63.34,42.24,52.6,36.76,46.41,5.51,-7.57,13.15,4.87,16.52,45.1,30.63,-11.07,62.96,58.32,-59.03,-107.1,-1875.67
596,-32.54,18.39,35.57,24.78,21.44,30.74,27.15,-14.53,31.97,27.15,-0.92,-1.52,23.67,0.21,-41.51,37.86,32.11,-167.31,-195.31,-2744.71
597,-103.64,-64.17,-57.34,-64.94,-73.96,-61.74,-70.08,-82.13,-40.58,-59.7,-87.14,-66.55,-69.32,-89.13,-127.1,-45.52,-55.43,81.07,164.97,3593.66
598,-33.44,17.59,32.48,11.36,24.09,8.59,7.62,-18.7,-31.02,-17.02,-26.49,-8.72,9.72,-1.28,-45.0,30.41,25.42,59.01,30.41,527.59
599,-2.59,59.44,70.9,51.74,64.74,57.94,51.68,6.98,35.36,41.97,19.67,26.61,51.99,31.37,-15.06,63.49,58.71,-166.5,-248.54,-3932.19
600,-82.75,-39.36,-39.42,-45.26,-50.1,-38.74,-55.64,-70.27,-12.69,-34.28,-68.59,-55.06,-54.26,-77.98,-115.79,-33.14,-47.01,-7.3,63.84,1883.9
601,-52.63,-11.99,-3.96,-21.08,-7.11,-22.86,-28.26,-44.95,-42.82,-39.98,-54.36,-33.42,-23.73,-39.88,-79.23,-2.24,-9.4,107.25,153.11,2742.29
602,12.76,69.94,85.18,60.96,81.53,64.56,61.06,17.3,26.95,41.29,25.74,35.4,65.55,44.22,-1.76,76.28,75.5,-127.04,-216.07,-3586.29
603,-55.98,-10.4,-8.7,-18.53,-18.94,-8.64,-24.94,-49.96,13.59,-4.7,-41.55,-42.29,-20.84,-50.22,-91.34,-7.68,-18.62,-106.63,-86.43,-525.9
604,-85.05,-49.2,-47.12,-59.96,-54.68,-60.46,-66.97,-78.13,-52.38,-63.7,-88.12,-66.18,-61.27,-82.77,-121.66,-41.85,-54.35,106.86,191.98,3958.55
605,9.64,60.43,70.93,43.94,69.18,44.67,45.99,4.3,5.67,21.2,6.79,23.77,52.37,33.52,-14.5,64.38,58.94,-63.91,-115.67,-1868.85
606,-13.78,42.06,40.44,23.73,34.05,35.32,18.5,-18.88,42.68,31.69,-2.14,2.13,28.25,-0.29,-47.97,36.29,29.45,-185.21,-201.78,-2726.79
607,-81.5,-43.48,-53.18,-64.79,-59.09,-59.76,-79.12,-88.17,-30.43,-54.1,-89.06,-62.87,-65.99,-91.92,-132.85,-48.97,-63.23,50.26,157.72,3666.06
608,-14.45,34.02,34.04,8.37,37.3,9.03,3.49,-26.84,-20.74,-12.45,-29.2,4.75,16.89,-3.61,-51.17,27.76,14.79,27.87,17.04,617.58
609,23.72,78.22,76.79,53.42,75.19,63.25,51.28,4.86,51.77,51.57,22.63,30.13,64.32,35.37,-16.71,66.11,55.73,-170.73,-255.16,-3844.06
610,-72.75,-28.46,-40.15,-52.79,-46.82,-41.84,-53.01,-78.32,-3.71,-32.19,-73.13,-54.53,-49.33,-79.76,-125.61,-38.13,-55.74,-9.33,47.43,1934.46
611,-50.59,-9.2,-14.28,-37.03,-13.85,-34.59,-31.35,-60.86,-41.92,-45.96,-68.23,-27.45,-29.07,-50.87,-98.09,-15.24,-29.67,95.85,129.88,2840.65
612,22.99,74.6,80.27,52.23,79.71,58.2,51.97,5.68,33.53,42.45,18.38,34.83,68.58,41.81,-13.18,72.38,65.19,-137.07,-229.32,-3552.98
613,-44.66,-1.02,-7.44,-20.78,-14.76,-11.74,-33.18,-57.57,26.65,1.44,-42.73,-30.63,-12.78,-47.67,-97.26,-2.57,-20.9,-114.4,-93.21,-496.22
614,-71.45,-35.34,-43.82,-60.55,-48.21,-57.68,-71.13,-84.58,-38.1,-55.87,-88.59,-53.3,-55.66,-80.97,-127.59,-39.35,-58.45,109.35,182.94,3952.99
615,13.74,67.94,69.8,37.75,68.53,41.63,39.39,-2.86,13.72,24.01,1.57,26.52,54.63,31.64,-23.67,63.77,55.8,-50.64,-121.42,-1847.47
616,-2.48,52.09,43.87,20.95,39.4,38.17,17.82,-22.32,55.49,38.59,-4.55,8.58,35.68,0.58,-53.99,40.0,29.13,-184.96,-206.01,-2686.23
617,-78.97,-37.25,-52.4,-70.81,-58.85,-57.53,-79.3,-94.2,-20.85,-51.12,-94.84,-62.55,-61.38,-92.92,-142.83,-48.62,-65.28,43.78,148.47,3659.54
618,-16.97,33.34,29.39,-2.66,30.64,3.01,-1.86,-36.75,-18.76,-14.96,-39.67,-10.76,13.62,-9.59,-64.86,16.97,9.99,4.75,1.63,587.41
619,26.55,87.18,81.09,50.92,81.7,69.21,49.63,0.78,61.58,56.19,18.88,23.91,69.49,37.74,-22.87,64.08,58.12,-199.89,-265.54,-3879.49
620,-70.48,-19.25,-36.25,-55.6,-37.78,-34.98,-63.26,-84.76,5.5,-28.49,-77.47,-57.02,-46.8,-80.02,-133.85,-42.44,-57.36,-30.18,40.59,1952.01
621,-43.74,1.03,-7.77,-36.0,-4.28,-28.76,-41.5,-65.19,-32.2,-39.96,-70.13,-30.21,-23.11,-46.72,-102.28,-14.55,-26.63,92.79,124.96,2792.56
622,34.86,92.56,89.1,54.56,92.1,66.59,55.49,5.17,48.45,50.64,20.08,45.13,73.66,48.12,-16.52,77.14,70.24,-138.76,-232.45,-3517.82
623,-38.35,9.7,-5.77,-26.27,-12.34,-6.33,-25.48,-62.32,33.24,2.61,-48.01,-25.42,-11.79,-47.34,-105.99,-4.61,-18.88,-123.49,-99.22,-472.48
624,-64.46,-29.45,-44.88,-68.98,-47.49,-58.03,-68.4,-90.08,-33.66,-56.89,-95.4,-50.42,-52.57,-81.77,-137.14,-40.59,-56.6,101.69,178.77,3967.07
625,20.31,72.91,67.29,31.85,72.43,43.14,34.22,-10.31,17.51,22.33,-3.94,29.07,54.33,29.23,-34.15,59.35,52.02,-51.15,-132.93,-1871.25
626,1.66,51.29,38.67,13.58,37.61,34.3,8.38,-32.72,56.36,35.32,-11.8,3.79,33.8,-3.01,-65.9,36.84,24.79,-182.28,-219.46,-2687.86
627,-80.13,-43.84,-62.95,-82.51,-66.08,-67.41,-90.63,-105.59,-24.97,-58.47,-105.01,-67.5,-68.92,-100.37,-158.1,-57.66,-77.15,48.38,141.67,3670.86
628,-10.07,34.4,26.55,-8.17,32.24,1.26,-3.91,-42.49,-14.59,-15.14,-43.47,1.97,15.82,-9.81,-73.14,21.85,7.37,25.43,2.71,555.46
629,20.76,76.13,66.03,32.95,70.49,52.79,41.18,-15.69,55.85,45.83,4.09,27.07,61.9,25.76,-41.26,58.21,44.6,-196.52,-274.4,-3865.23
630,-70.05,-25.15,-48.17,-68.68,-48.79,-49.38,-71.03,-96.22,2.44,-34.4,-88.17,-50.56,-46.25,-85.31,-146.04,-43.98,-63.56,-37.39,33.52,1965.98
631,-35.51,9.2,-10.04,-40.57,-2.32,-31.24,-41.49,-69.3,-23.66,-36.68,-71.48,-18.85,-14.65,-43.46,-107.6,-9.54,-23.93,103.51,124.55,2812.8
632,42.73,98.23,84.58,46.6,93.88,63.32,49.74,-2.97,50.0,49.4,13.76,41.23,78.95,45.92,-24.27,73.91,65.64,-131.79,-237.55,-3545.0
633,-31.95,16.91,-9.09,-32.96,-7.31,-8.28,-37.0,-70.0,36.62,2.21,-53.57,-28.36,-8.24,-49.65,-114.5,-9.43,-23.92,-124.01,-102.02,-429.51
634,-65.92,-22.48,-47.28,-73.65,-41.82,-59.1,-82.92,-98.31,-30.03,-56.65,-101.48,-55.89,-52.98,-82.94,-145.33,-42.89,-62.75,87.18,172.13,3964.58
635,29.01,80.19,68.64,28.7,80.79,44.31,31.66,-15.87,26.85,27.28,-5.74,33.43,62.52,32.15,-38.4,62.18,47.24,-71.11,-136.53,-1816.95
636,0.96,54.03,35.32,5.15,41.62,30.2,9.04,-38.0,61.32,37.02,-16.74,10.4,37.38,-2.91,-72.27,36.93,18.19,-189.43,-219.5,-2624.46
637,-64.14,-36.07,-59.41,-83.27,-55.26,-66.01,-89.72,-105.24,-12.92,-49.59,-103.18,-54.99,-58.44,-94.02,-156.13,-48.17,-71.15,51.67,143.16,3698.72
638,10.88,45.69,34.64,-4.78,44.93,8.15,-0.06,-38.72,1.95,-1.01,-36.08,15.19,32.2,2.17,-66.46,35.9,21.75,19.0,3.89,575.28
639,31.5,84.97,71.36,36.22,77.64,56.08,38.58,-12.41,68.91,56.71,9.82,42.24,72.76,35.5,-35.74,70.85,54.28,-185.69,-273.72,-3856.39
640,-60.13,-21.99,-45.36,-67.96,-47.33,-46.7,-76.76,-97.1,13.71,-27.81,-85.84,-49.3,-39.85,-80.28,-145.14,-34.85,-58.52,-21.89,32.98,1972.73
641,-30.3,5.1,-12.43,-45.61,-7.21,-35.33,-50.52,-74.77,-20.12,-36.97,-75.02,-22.2,-13.36,-44.77,-111.96,-6.82,-24.27,81.53,117.89,2772.41
642,42.99,96.35,83.29,42.31,92.83,58.8,45.88,-7.36,55.35,51.01,10.55,44.93,81.14,45.91,-28.79,75.34,66.0,-130.42,-243.39,-3549.88
643,-31.88,17.33,-8.06,-35.8,-5.23,-9.76,-36.86,-73.79,41.7,4.07,-54.55,-16.53,-5.21,-48.95,-117.44,-7.12,-24.98,-103.7,-103.97,-467.4
644,-56.01,-22.46,-48.6,-79.18,-42.18,-62.75,-81.02,-103.5,-27.07,-56.65,-104.11,-49.15,-46.74,-85.74,-150.59,-42.22,-65.92,91.97,167.81,3945.43
645,34.62,81.53,66.38,20.81,79.71,38.89,25.82,-21.02,27.09,25.92,-11.56,35.91,62.54,26.8,-45.14,61.74,43.4,-78.45,-144.41,-1910.98
646,7.24,55.28,33.07,-0.49,40.73,26.4,-2.04,-45.19,63.05,34.6,-23.03,11.44,37.53,-9.7,-80.97,34.27,9.61,-187.05,-227.0,-2710.4
647,-62.38,-33.46,-61.01,-88.45,-56.17,-67.13,-95.13,-113.39,-13.13,-52.88,-108.85,-49.8,-57.76,-99.73,-165.68,-50.88,-80.75,55.01,136.69,3616.14
648,16.66,50.44,35.51,-7.29,49.54,9.43,-2.42,-42.22,5.78,-1.89,-37.55,20.32,33.76,-1.29,-71.81,36.22,14.41,20.39,1.95,498.84
649,40.69,87.64,72.12,31.68,83.9,58.58,39.96,-16.96,70.94,56.27,6.3,51.75,74.37,31.11,-42.05,68.96,48.18,-197.17,-276.86,-3928.15
650,-45.53,-13.05,-41.25,-69.63,-35.75,-42.12,-75.17,-97.69,20.52,-22.64,-85.52,-38.92,-33.84,-79.24,-144.87,-29.39,-56.37,-27.17,38.45,1934.66
651,-14.86,10.46,-9.15,-47.96,4.03,-31.25,-51.65,-76.61,-15.32,-31.98,-76.48,-13.98,-10.29,-45.17,-112.8,-0.46,-23.12,86.95,118.0,2725.69
652,48.49,95.18,81.36,37.07,95.64,58.71,40.99,-10.76,57.49,51.59,6.96,46.82,81.19,41.92,-31.6,79.91,64.58,-141.94,-244.36,-3620.01
653,-20.38,19.32,-7.53,-37.31,-1.01,-7.58,-39.7,-74.09,46.75,8.65,-55.16,-20.0,2.07,-45.87,-115.13,0.67,-21.4,-117.48,-102.6,-477.29
654,-48.63,-18.69,-45.15,-78.7,-34.06,-56.86,-78.57,-102.55,-20.23,-50.96,-101.67,-42.84,-40.37,-78.96,-146.08,-34.32,-56.76,97.72,171.9,3914.91
655,39.67,83.56,69.2,22.61,86.43,41.27,27.36,-20.92,33.82,30.36,-8.87,42.19,71.24,35.31,-40.8,68.76,53.06,-72.13,-139.76,-1926.17
656,18.45,62.86,39.51,3.69,51.59,31.79,3.48,-43.16,71.74,41.76,-17.08,21.04,46.32,1.98,-73.17,46.8,23.95,-190.87,-220.91,-2719.1
657,-50.12,-22.59,-52.64,-84.14,-42.02,-59.84,-87.82,-110.66,-0.5,-44.42,-102.04,-43.06,-47.38,-89.21,-156.82,-35.44,-64.19,43.5,139.28,3629.82
658,22.11,54.7,33.73,-10.45,54.68,8.7,-7.54,-49.85,7.88,-2.59,-41.76,21.88,35.87,-0.78,-74.2,41.15,19.7,15.8,-6.88,467.11
659,57.71,95.99,73.59,32.54,91.71,60.4,34.15,-20.63,77.22,58.73,6.57,44.32,78.81,34.94,-42.22,75.61,56.85,-167.98,-277.92,-3877.61
660,-28.91,0.19,-34.15,-62.81,-23.69,-35.82,-70.49,-97.7,29.05,-16.61,-78.82,-28.57,-25.32,-70.42,-141.64,-16.8,-44.0,-1.72,38.23,1942.37
661,-15.92,19.97,-5.19,-45.39,10.45,-28.64,-45.26,-77.99,-7.88,-28.4,-72.93,-1.84,-1.93,-37.41,-110.94,9.1,-13.71,81.52,116.66,2726.38
662,58.12,104.99,88.67,41.61,104.64,62.94,42.62,-11.17,64.56,57.38,12.47,60.32,90.44,52.84,-27.4,91.77,77.36,-155.85,-246.17,-3617.77
663,-10.98,25.24,-2.67,-34.15,5.28,-7.71,-44.85,-75.3,52.78,13.16,-51.05,-9.13,5.04,-37.67,-112.81,12.21,-11.9,-125.84,-104.25,-471.43
664,-39.28,-16.45,-41.66,-78.18,-28.99,-57.48,-85.34,-104.31,-17.18,-47.05,-99.57,-32.04,-38.74,-73.54,-145.31,-25.48,-52.15,108.67,165.22,3907.89
665,50.99,86.36,72.32,24.78,89.03,43.85,24.44,-21.35,39.36,35.76,-5.72,49.51,75.39,41.05,-38.6,77.85,61.2,-34.95,-139.01,-1940.23
666,28.37,62.68,40.44,2.62,49.35,31.81,5.7,-42.92,75.15,44.91,-16.47,22.75,49.44,4.93,-74.06,49.75,27.98,-164.52,-217.13,-2676.9
667,-51.76,-28.74,-58.12,-88.84,-50.24,-65.69,-91.09,-112.75,-2.7,-45.66,-106.82,-52.53,-49.54,-88.57,-161.4,-39.12,-63.82,54.86,140.67,3638.56
668,20.86,50.16,33.08,-11.59,49.62,6.55,-11.38,-48.67,8.35,-1.21,-42.87,17.22,37.38,3.1,-74.91,42.06,23.69,14.89,-5.07,479.08
669,47.9,86.39,69.1,27.77,82.61,53.23,30.09,-22.49,74.07,56.12,2.2,41.2,77.1,36.22,-45.16,76.22,57.8,-204.21,-278.89,-3916.87
670,-37.9,-16.04,-46.55,-73.07,-37.85,-48.28,-76.39,-103.44,23.08,-22.9,-89.19,-39.61,-28.87,-73.69,-148.55,-23.77,-48.37,-28.59,35.55,1963.61
671,-9.66,7.74,-13.29,-50.67,0.95,-36.59,-50.22,-81.04,-10.45,-32.36,-78.62,-8.55,-3.3,-38.18,-114.38,6.41,-17.37,92.67,115.21,2716.21
672,64.07,98.22,84.6,40.86,99.5,61.48,41.33,-9.53,68.13,57.17,10.58,55.58,94.5,54.52,-28.09,93.77,73.77,-138.57,-242.86,-3579.83
673,-13.78,13.74,-9.65,-40.38,-3.91,-12.53,-43.2,-78.95,50.0,7.65,-57.73,-6.23,6.86,-41.16,-118.79,9.44,-18.27,-114.47,-104.87,-456.16
674,-42.27,-26.39,-46.31,-80.36,-40.46,-63.79,-85.6,-105.51,-17.37,-51.41,-105.13,-34.55,-36.99,-74.9,-149.48,-23.57,-54.22,102.14,169.43,3920.48
675,48.76,78.78,67.29,21.48,83.3,37.35,23.68,-23.78,36.57,29.75,-11.81,47.83,71.68,36.47,-46.24,78.17,55.19,-66.35,-143.93,-1953.93
676,26.59,55.66,36.17,0.8,45.55,26.27,-1.05,-45.07,74.41,42.18,-20.47,27.16,47.65,2.89,-79.37,51.33,27.3,-174.33,-220.65,-2685.69
677,-46.83,-31.0,-55.05,-85.54,-47.77,-63.5,-92.37,-110.96,1.19,-42.68,-104.73,-45.41,-44.02,-86.17,-160.84,-31.43,-63.38,66.16,140.05,3644.81
678,25.79,44.95,32.13,-11.78,47.94,2.94,-12.63,-47.85,9.88,-0.26,-42.26,24.98,35.43,3.89,-77.32,44.76,22.0,31.47,-4.69,464.64
679,45.55,78.13,63.14,22.64,75.18,47.53,31.2,-24.55,72.53,54.2,-0.99,38.25,73.95,32.63,-50.61,74.49,56.12,-189.62,-281.43,-3893.13
680,-53.5,-34.74,-60.3,-86.76,-57.62,-65.61,-82.65,-111.89,10.92,-35.36,-100.55,-59.43,-43.16,-86.76,-161.5,-36.34,-60.41,-36.26,27.17,2024.07
681,-36.51,-14.96,-34.0,-69.92,-26.87,-60.73,-66.4,-93.42,-28.99,-49.51,-95.4,-43.45,-22.35,-57.73,-132.95,-16.05,-35.63,74.8,105.19,2845.01
682,44.49,80.16,67.02,24.64,76.01,39.17,33.59,-20.22,52.84,44.03,-2.1,30.89,77.06,39.2,-41.59,75.81,62.24,-143.5,-250.28,-3441.0
683,17.86,39.18,14.16,-17.14,21.48,7.45,-27.04,-55.05,79.38,36.0,-31.05,10.26,29.22,-16.47,-92.92,38.2,11.03,-89.33,-80.8,-222.91
684,0.9,13.13,-11.2,-47.72,4.08,-28.11,-60.83,-75.46,22.76,-12.71,-68.13,-1.21,-2.68,-40.83,-114.57,14.98,-15.53,120.17,197.23,4064.0
685,88.51,111.46,100.38,50.93,122.31,72.29,51.7,4.55,72.54,65.32,21.92,79.15,105.16,69.02,-12.07,113.49,90.29,-37.71,-117.21,-1885.94
686,44.34,73.26,55.43,17.61,67.29,44.56,13.2,-28.85,95.19,62.85,0.23,48.91,66.13,22.78,-56.95,73.92,48.7,-153.03,-205.48,-2694.99
687,-44.81,-27.62,-51.38,-80.95,-46.2,-64.02,-93.58,-106.09,7.12,-35.58,-96.19,-41.82,-39.05,-78.14,-151.21,-22.58,-52.21,78.61,148.93,3670.99
688,20.62,43.89,34.12,-8.45,45.78,2.34,-12.46,-44.79,12.36,3.77,-36.49,14.86,40.8,8.42,-70.46,51.19,28.69,31.92,-2.41,459.98
689,49.38,83.09,72.99,33.05,79.57,51.72,29.2,-16.41,81.24,62.72,10.78,40.61,81.02,42.71,-38.61,84.61,67.26,-179.97,-271.8,-3873.48
690,-37.96,-16.27,-37.57,-66.12,-35.88,-46.33,-77.28,-95.52,32.11,-14.65,-79.14,-40.76,-24.59,-66.89,-141.35,-9.8,-40.23,-17.4,44.38,2006.38
691,-12.47,7.6,-4.4,-44.45,3.02,-34.45,-42.21,-71.61,-2.31,-22.15,-68.61,-16.21,2.52,-30.0,-106.15,18.23,-9.03,88.93,124.43,2704.33
692,66.03,98.25,92.1,46.44,99.88,62.17,46.54,-2.05,76.46,67.66,19.7,57.88,101.77,63.78,-19.34,107.37,84.74,-124.53,-235.58,-3614.94
693,-9.78,13.99,-2.97,-34.73,-4.15,-12.65,-44.14,-71.13,59.01,17.9,-48.35,-8.8,15.07,-32.1,-109.42,23.42,-5.98,-102.79,-96.04,-439.91
694,-38.69,-24.1,-40.29,-75.31,-38.7,-62.25,-81.9,-98.97,-8.4,-41.74,-94.38,-32.18,-28.52,-65.52,-140.18,-12.13,-41.56,100.51,175.1,3950.75
695,53.63,77.61,73.44,26.85,80.9,38.5,29.45,-16.37,45.68,40.59,-0.88,52.29,84.21,49.38,-33.16,90.75,68.82,-65.52,-137.53,-1970.71
696,26.35,51.55,40.91,5.23,42.37,27.2,1.63,-39.8,79.63,50.35,-11.79,21.03,57.67,12.16,-67.96,60.81,35.97,-174.4,-217.5,-2674.2
697,-52.73,-38.08,-55.18,-84.66,-55.5,-68.84,-90.19,-108.37,0.77,-40.3,-100.16,-47.46,-39.18,-80.97,-155.05,-26.05,-56.51,70.47,145.24,3633.97
698,20.06,38.21,32.49,-10.19,39.55,-2.02,-8.35,-44.55,11.69,3.03,-37.1,13.85,42.99,9.41,-69.0,52.59,29.49,35.36,0.05,432.65
699,50.34,77.68,71.06,32.43,77.21,50.5,30.84,-16.16,79.84,63.19,11.72,42.13,84.13,42.81,-37.6,87.37,66.42,-196.3,-273.86,-3918.63
700,-40.45,-24.61,-43.42,-69.07,-43.49,-50.14,-77.52,-97.79,25.5,-18.38,-82.18,-44.39,-24.73,-69.46,-142.17,-17.08,-44.44,-21.28,41.0,1956.53
701,-11.78,6.34,-5.42,-42.9,-1.32,-34.08,-47.15,-69.47,-3.55,-22.0,-66.02,-1.59,8.08,-26.53,-102.33,18.41,-3.94,102.0,122.4,2659.29
702,62.7,92.59,85.81,42.59,93.43,58.04,46.92,-3.45,69.54,62.97,16.9,62.39,98.82,60.79,-20.63,102.57,84.77,-125.71,-239.88,-3659.42
703,-19.81,6.85,-10.93,-39.95,-10.91,-17.7,-44.02,-74.47,51.01,9.84,-53.9,-23.84,2.42,-40.58,-114.96,15.45,-14.25,-99.5,-100.01,-448.84
704,-44.76,-32.41,-46.67,-79.81,-44.15,-68.5,-86.2,-102.68,-19.89,-49.83,-99.63,-42.6,-39.34,-73.77,-145.63,-18.49,-50.95,109.73,171.24,3883.72
705,49.63,75.22,70.32,24.72,79.7,38.45,29.91,-17.89,36.26,36.16,-3.61,41.37,77.43,44.04,-36.45,86.71,65.05,-63.77,-139.76,-2003.52
706,26.71,57.23,42.66,8.48,50.51,33.01,10.22,-34.06,78.51,51.03,-7.61,24.65,56.87,15.64,-64.09,67.31,40.38,-170.88,-208.9,-2685.92
707,-45.64,-31.1,-52.74,-81.89,-44.15,-59.8,-85.8,-101.85,2.13,-36.81,-96.16,-36.53,-36.89,-74.02,-147.03,-15.03,-47.16,58.91,148.01,3626.91
708,26.78,43.77,33.04,-9.89,48.04,7.14,0.15,-40.57,10.27,3.7,-35.08,20.57,44.23,14.58,-63.6,61.4,36.5,22.58,-1.59,400.78
709,43.86,71.76,61.29,22.74,72.52,47.44,33.42,-19.08,69.13,55.09,4.63,41.27,79.43,39.64,-40.54,88.36,63.41,-192.33,-276.63,-3902.25
710,-55.9,-38.31,-56.5,-80.8,-53.02,-57.04,-80.34,-102.69,9.76,-28.94,-90.53,-46.93,-35.5,-76.06,-147.86,-17.06,-47.57,-28.58,35.52,1976.56
711,-18.03,-5.42,-14.61,-50.22,-4.64,-34.88,-47.67,-71.91,-16.12,-29.83,-71.38,-14.63,-1.11,-31.83,-105.21,22.79,-1.93,94.17,115.28,2684.2
712,53.87,80.55,79.24,39.12,90.65,61.76,47.07,-5.12,57.07,56.92,15.08,47.97,91.97,57.84,-21.71,105.93,87.92,-142.62,-243.7,-3640.51
713,-17.54,-1.72,-11.29,-37.46,-9.06,-9.32,-36.31,-68.84,42.72,10.05,-49.7,-15.68,4.71,-35.48,-109.85,23.74,-2.99,-108.99,-92.39,-446.02
714,-48.43,-42.48,-49.9,-77.8,-43.16,-60.0,-80.37,-98.48,-27.53,-50.79,-97.16,-41.44,-38.58,-71.07,-141.02,-12.09,-38.68,123.89,175.86,3894.97
715,35.7,56.34,59.32,19.91,70.49,37.03,27.82,-19.8,20.99,26.11,-9.05,28.44,67.15,36.17,-40.54,85.18,66.37,-49.83,-143.21,-2010.54
716,-1.68,22.14,18.89,-8.34,22.32,18.74,-3.11,-47.69,48.74,27.13,-27.08,1.04,32.09,-7.36,-81.88,49.02,26.22,-163.61,-222.62,-2668.59
717,-73.64,-60.68,-71.07,-93.27,-70.35,-72.79,-93.42,-110.54,-23.24,-58.37,-109.17,-66.07,-58.33,-93.01,-161.69,-28.18,-55.3,69.29,144.98,3622.04
718,2.88,17.91,19.38,-18.12,27.66,-1.43,-8.21,-45.87,-13.46,-15.15,-46.08,4.41,23.97,-2.25,-75.59,51.0,30.59,17.14,-6.42,384.89
719,29.34,55.75,56.89,23.98,61.16,48.08,39.58,-17.16,53.08,44.2,1.91,28.26,67.55,33.46,-42.15,85.46,69.08,-189.03,-271.09,-3933.63
720,-64.15,-47.83,-59.41,-80.03,-59.0,-54.29,-65.59,-97.69,-2.2,-39.69,-92.28,-61.4,-43.16,-80.77,-148.83,-16.69,-43.43,-11.08,43.29,1959.43
721,-35.33,-23.73,-27.94,-58.22,-19.75,-41.17,-48.81,-76.39,-37.85,-49.41,-82.14,-31.16,-17.72,-45.16,-114.47,10.42,-13.1,103.75,115.22,2647.64
722,36.22,64.61,65.62,30.9,75.93,52.81,45.1,-9.2,38.97,39.52,4.3,33.39,75.11,44.38,-31.35,93.05,72.91,-142.55,-246.95,-3634.59
723,-39.25,-16.92,-28.41,-48.18,-24.11,-20.14,-42.42,-76.3,23.08,-9.57,-61.59,-39.8,-15.51,-51.82,-121.3,6.26,-20.9,-116.39,-102.12,-434.67
724,-56.32,-52.56,-61.61,-83.67,-54.21,-66.64,-79.52,-100.55,-39.99,-64.29,-103.86,-53.67,-49.05,-78.08,-146.46,-23.12,-48.46,98.68,173.69,3897.09
725,30.0,49.37,51.55,15.45,64.9,34.05,33.1,-19.09,13.11,15.7,-11.59,35.67,59.77,32.95,-42.43,78.31,59.9,-69.73,-142.26,-2000.13
726,-1.22,26.21,19.2,-5.99,27.32,22.56,1.88,-41.76,48.15,26.26,-21.92,12.71,33.01,-4.69,-75.36,51.48,27.72,-170.02,-217.0,-2647.08
727,-71.2,-62.24,-75.68,-94.54,-71.58,-75.93,-93.79,-110.21,-27.31,-62.77,-108.62,-67.29,-62.41,-95.72,-158.06,-33.38,-60.88,72.21,144.24,3663.09
728,-1.36,15.5,15.29,-17.05,25.48,-5.99,-7.92,-44.68,-16.56,-17.48,-43.85,2.25,20.52,-3.84,-71.84,45.98,23.93,41.5,-3.71,428.28
729,21.97,48.8,48.63,18.25,53.17,40.9,36.04,-19.52,45.44,37.42,-1.46,22.76,58.34,24.55,-45.65,74.14,53.35,-188.66,-278.22,-3875.79
730,-66.34,-51.99,-62.25,-79.68,-64.92,-59.75,-69.42,-97.06,-7.08,-42.52,-91.11,-58.58,-49.77,-83.94,-146.95,-22.5,-48.53,-19.69,42.26,2012.69
731,-39.39,-22.12,-25.81,-53.92,-19.25,-40.92,-39.61,-70.34,-37.47,-47.25,-76.16,-20.76,-15.84,-42.43,-108.36,10.74,-10.16,88.36,118.59,2673.68
732,31.57,63.32,64.19,29.25,72.83,49.72,55.08,-5.07,34.9,36.77,5.81,32.89,73.94,45.33,-27.47,92.13,76.33,-156.11,-246.38,-3646.25
733,-45.87,-21.4,-32.7,-52.01,-32.29,-26.86,-41.57,-74.76,18.13,-13.74,-63.08,-44.94,-16.84,-52.92,-118.99,3.46,-18.45,-111.81,-93.8,-388.43
734,-69.52,-57.0,-68.02,-88.22,-62.33,-77.91,-87.69,-100.87,-47.43,-69.9,-105.44,-63.17,-53.98,-82.18,-145.36,-26.71,-53.04,103.34,175.79,3892.28
735,21.23,46.94,46.81,13.86,56.38,23.35,26.25,-19.4,7.84,12.67,-11.2,17.83,54.72,28.22,-40.04,76.41,56.07,-65.14,-143.1,-1997.79
736,-0.19,22.92,16.06,-5.66,19.65,14.82,0.28,-40.86,45.03,24.16,-19.83,-1.15,29.73,-6.9,-72.04,49.78,27.71,-168.54,-213.49,-2622.09
737,-72.65,-66.39,-76.37,-92.54,-76.15,-77.54,-92.63,-107.16,-30.22,-62.88,-104.52,-61.17,-65.37,-95.82,-153.45,-33.26,-59.94,68.31,149.98,3682.36
738,-5.56,12.53,17.02,-14.38,23.99,-4.73,-4.3,-39.95,-17.57,-15.66,-38.66,1.31,22.38,-1.48,-65.54,51.35,31.61,28.81,1.06,407.35
739,21.77,50.31,54.63,25.33,56.08,44.36,33.32,-13.6,50.29,43.6,7.54,30.75,63.82,32.46,-35.07,85.75,68.15,-179.56,-267.83,-3891.35
740,-62.69,-51.25,-57.58,-74.18,-61.4,-56.52,-77.97,-93.01,-1.62,-35.67,-81.72,-53.97,-42.25,-76.57,-136.75,-12.43,-36.85,-11.17,50.49,2045.74
741,-33.31,-24.2,-21.94,-49.83,-20.99,-42.86,-46.88,-67.44,-35.33,-42.21,-68.73,-22.09,-11.92,-36.1,-99.16,18.88,-5.17,106.29,127.17,2670.32
742,31.98,59.27,68.47,34.01,69.84,49.29,52.13,-2.14,39.59,43.84,14.32,47.81,82.18,51.12,-18.77,99.81,79.02,-135.17,-237.37,-3624.16
743,-41.82,-20.59,-24.67,-44.17,-29.38,-21.94,-38.57,-69.25,26.31,-2.82,-50.77,-24.58,-3.81,-41.75,-106.2,18.28,-8.76,-92.39,-88.91,-368.51
744,-68.61,-58.33,-62.62,-84.98,-63.52,-73.3,-85.23,-97.6,-43.12,-63.92,-99.6,-50.56,-48.18,-76.37,-137.75,-20.13,-48.15,110.15,177.24,3909.45
745,25.51,48.25,54.94,19.5,59.57,31.19,31.14,-12.75,13.72,19.65,-4.72,33.6,68.8,40.78,-28.69,86.63,66.86,-60.27,-138.47,-2029.88
746,-6.71,21.24,19.21,-4.55,18.08,18.45,0.27,-37.02,47.95,26.74,-17.47,4.05,37.31,0.75,-65.76,54.63,31.04,-164.14,-211.28,-2631.93
747,-70.37,-59.29,-67.25,-85.28,-67.91,-67.72,-88.83,-97.84,-21.84,-55.19,-97.77,-56.6,-50.32,-84.18,-144.42,-24.13,-54.36,74.3,156.58,3663.03
748,3.89,18.86,24.89,-8.5,30.7,3.09,-4.23,-32.72,-10.29,-11.2,-33.15,13.87,35.76,6.82,-58.37,57.73,32.45,44.23,5.5,389.8
749,29.76,53.39,58.39,27.68,62.61,50.01,35.97,-9.68,52.96,44.94,10.19,32.79,70.1,35.06,-33.61,87.58,65.36,-190.52,-266.49,-3884.13
750,-60.66,-48.73,-57.15,-75.01,-59.02,-51.65,-74.22,-92.45,-1.82,-37.68,-85.49,-43.82,-38.4,-78.19,-138.48,-13.6,-46.13,-29.13,47.98,2035.99
751,-32.33,-19.76,-22.66,-51.77,-17.19,-37.41,-46.39,-69.0,-35.25,-44.87,-73.04,-13.46,-9.95,-41.15,-103.24,16.61,-16.12,79.7,117.71,2623.58
752,43.22,70.41,72.24,37.13,80.44,57.03,48.8,-0.9,45.08,45.44,15.71,54.98,86.44,51.22,-16.35,105.67,79.98,-142.89,-237.9,-3669.22
753,-28.4,-10.71,-23.05,-43.86,-20.73,-17.0,-38.0,-68.45,30.41,-3.42,-52.86,-14.12,-0.78,-43.33,-105.2,21.79,-8.56,-101.69,-86.16,-356.39
754,-54.64,-44.86,-55.31,-81.49,-50.96,-64.35,-76.13,-93.15,-36.74,-59.47,-96.63,-37.27,-35.91,-73.54,-132.87,-7.84,-41.19,126.97,182.69,3898.93
755,42.12,62.06,62.02,22.93,73.24,40.97,40.65,-9.73,22.33,25.14,-0.77,49.95,76.93,41.12,-26.02,97.55,70.18,-43.39,-134.73,-2002.94
756,8.22,33.85,25.29,-3.72,31.18,26.32,11.18,-35.13,54.92,30.39,-15.2,22.38,47.65,1.62,-62.72,68.26,39.71,-161.32,-206.35,-2593.66
757,-64.22,-51.45,-66.55,-90.21,-61.37,-65.72,-86.04,-102.72,-18.97,-54.48,-101.16,-44.39,-44.53,-88.08,-145.94,-13.96,-49.38,58.21,153.23,3697.25
758,10.97,30.76,24.91,-11.84,39.09,3.85,-4.41,-37.17,-4.0,-7.3,-35.17,20.99,43.23,6.09,-58.32,67.86,35.51,23.67,0.45,395.44
759,33.2,62.59,55.95,23.8,65.6,47.64,31.98,-13.41,60.9,48.06,6.27,42.98,77.77,33.97,-32.58,96.72,66.62,-185.28,-268.14,-3829.19
760,-55.65,-39.04,-56.97,-76.39,-53.31,-54.15,-74.97,-93.11,8.01,-32.51,-84.83,-41.34,-30.62,-77.53,-137.27,-5.6,-38.56,-18.09,52.59,2072.94
761,-21.84,-12.11,-23.23,-51.22,-10.18,-38.94,-44.83,-66.11,-23.01,-38.65,-71.85,-14.93,-0.96,-38.31,-100.01,26.24,-4.38,94.04,127.42,2677.72
762,47.55,74.28,64.94,32.66,82.17,51.59,48.87,-1.75,50.52,45.74,11.71,51.83,88.76,49.22,-19.1,107.18,81.56,-143.19,-238.74,-3625.98
763,-30.39,-10.26,-30.29,-49.71,-21.06,-22.62,-32.04,-68.67,35.01,-5.32,-57.19,-18.55,0.91,-47.45,-108.63,23.9,-9.44,-87.93,-85.14,-358.76
764,-50.78,-47.74,-67.38,-87.99,-50.38,-70.44,-74.83,-93.42,-33.11,-63.33,-102.11,-37.14,-39.07,-78.57,-136.74,-5.44,-42.48,131.91,182.68,3907.62
765,35.92,54.2,43.55,11.75,69.39,31.43,36.23,-11.96,17.77,16.81,-10.2,46.58,67.6,31.46,-32.58,95.8,64.1,-52.44,-135.81,-2028.87
766,1.14,21.17,3.69,-15.94,23.08,16.7,9.92,-38.51,45.45,17.72,-27.64,6.57,36.07,-11.97,-73.04,63.03,27.12,-178.86,-208.37,-2589.83
767,-72.39,-71.42,-95.03,-106.53,-75.01,-78.71,-86.9,-106.48,-38.0,-76.3,-117.78,-61.43,-62.47,-105.16,-159.61,-24.76,-62.17,59.69,151.85,3678.14
768,-1.7,8.9,-3.7,-27.46,28.73,-3.08,0.4,-38.79,-23.94,-28.53,-51.53,14.01,24.73,-10.56,-71.36,61.67,26.27,45.34,0.44,373.3
769,24.12,41.86,25.76,6.38,57.6,40.37,37.15,-16.43,37.4,24.95,-10.66,32.0,58.26,16.34,-45.46,92.17,56.97,-177.73,-267.36,-3851.26
770,-66.69,-63.65,-89.79,-96.9,-62.63,-62.06,-75.41,-98.69,-19.17,-58.31,-105.16,-55.73,-52.22,-97.6,-150.0,-11.68,-52.05,-26.96,49.74,2075.27
771,-40.42,-39.24,-55.68,-74.26,-23.08,-47.49,-48.1,-76.29,-56.01,-66.27,-93.51,-28.83,-26.23,-61.48,-115.78,14.79,-22.4,75.16,117.43,2610.74
772,30.52,47.21,36.66,14.24,68.6,46.1,44.26,-9.97,20.15,20.98,-7.21,36.82,65.62,27.29,-33.35,93.69,65.41,-155.05,-239.46,-3641.92
773,-34.95,-26.02,-48.76,-57.13,-23.28,-20.17,-34.75,-70.91,14.13,-17.74,-66.69,-23.49,-13.76,-59.59,-114.05,17.26,-17.66,-114.94,-80.39,-315.76
774,-58.83,-60.92,-80.88,-94.09,-53.88,-67.14,-69.83,-94.71,-50.48,-72.35,-109.24,-42.52,-51.57,-88.79,-137.87,-13.1,-47.03,96.57,184.89,3903.79
775,32.79,44.7,33.19,7.6,66.26,35.22,33.07,-13.93,6.06,9.2,-15.73,40.85,59.97,23.39,-32.76,89.93,64.85,-71.3,-139.49,-2061.42
776,0.24,14.41,-4.36,-19.89,21.36,16.38,4.27,-40.81,36.53,14.14,-31.26,14.86,29.14,-18.51,-72.08,57.88,25.84,-162.62,-208.93,-2595.63
777,-62.59,-69.13,-95.54,-105.04,-71.52,-74.41,-84.25,-105.17,-35.15,-69.4,-114.7,-47.19,-60.31,-105.0,-153.26,-20.1,-59.6,87.43,155.1,3682.75
778,9.0,13.21,-1.57,-25.55,31.48,-0.56,0.92,-37.67,-16.76,-20.24,-47.39,25.41,30.91,-9.6,-64.97,64.26,30.12,34.54,1.2,351.11
779,28.67,48.61,32.13,11.72,62.16,46.81,41.53,-13.47,49.07,35.84,-4.37,44.55,69.07,19.78,-38.34,91.1,57.88,-183.52,-267.89,-3860.14
780,-69.35,-63.43,-89.95,-96.62,-67.79,-63.42,-77.68,-101.68,-14.91,-53.63,-105.04,-52.78,-50.51,-99.36,-148.86,-18.92,-58.71,-16.1,47.0,2052.32
781,-53.75,-47.37,-62.37,-80.05,-37.41,-56.6,-49.82,-82.01,-56.86,-68.23,-98.93,-35.03,-32.27,-67.97,-118.92,-0.04,-32.24,78.91,111.6,2694.51
782,7.08,28.41,19.76,-2.88,42.99,25.63,37.37,-22.55,6.9,8.08,-23.82,10.1,46.79,9.37,-46.22,68.54,46.47,-168.9,-257.03,-3552.17
783,-52.9,-35.82,-61.0,-67.71,-43.56,-35.33,-45.58,-76.8,6.71,-25.25,-76.77,-52.79,-26.91,-72.54,-121.68,0.35,-28.89,-108.41,-90.11,-164.81
784,-38.22,-30.84,-57.98,-71.98,-28.59,-43.14,-56.85,-73.34,-21.93,-47.64,-87.88,-34.49,-29.61,-67.7,-116.18,8.83,-27.14,125.79,202.31,4080.42
785,66.18,81.13,65.54,37.19,104.14,69.7,57.26,13.1,43.51,43.17,11.06,65.11,87.92,51.99,-4.11,123.28,91.25,-47.2,-111.9,-1939.85
786,31.84,49.02,25.38,6.88,58.82,50.35,24.89,-17.55,71.01,44.03,-6.82,36.2,52.0,6.34,-46.39,86.67,49.7,-158.81,-184.43,-2588.38
787,-52.29,-51.25,-79.67,-91.62,-50.34,-57.78,-70.7,-93.96,-18.36,-55.39,-104.09,-54.21,-52.2,-94.58,-139.44,-9.66,-48.55,77.15,168.66,3655.83
788,10.08,17.88,-0.82,-24.19,35.0,1.86,5.4,-38.71,-18.8,-22.24,-50.43,-0.69,22.69,-14.56,-65.35,57.26,26.05,38.08,1.54,325.96
789,36.31,55.7,33.69,11.92,65.55,50.64,40.22,-13.23,47.4,33.72,-6.84,26.66,63.92,14.81,-38.15,89.4,60.38,-176.81,-263.84,-3888.5
790,-53.16,-43.66,-76.12,-85.98,-48.99,-47.38,-70.64,-92.61,-3.08,-44.53,-97.03,-47.65,-42.54,-94.62,-140.11,-8.98,-47.73,-12.48,58.74,2087.02
791,-26.23,-15.82,-42.32,-62.5,-7.12,-32.48,-42.12,-68.85,-37.52,-54.85,-85.89,-17.82,-16.87,-57.93,-104.12,18.72,-18.67,90.08,125.36,2609.78
792,47.36,73.48,52.75,26.41,88.73,62.78,56.27,0.34,41.42,36.44,2.39,51.6,80.23,34.85,-17.99,105.08,76.17,-148.1,-233.72,-3658.3
793,-22.19,-5.78,-38.28,-53.06,-10.17,-9.46,-29.32,-64.43,28.15,-9.96,-62.87,-17.35,-4.08,-57.64,-105.37,23.97,-11.91,-104.86,-76.9,-320.12
794,-51.74,-45.67,-77.61,-94.78,-47.48,-63.39,-74.19,-91.98,-43.84,-71.91,-111.24,-51.9,-48.3,-92.46,-137.31,-15.02,-51.12,115.91,185.98,3886.74
795,39.24,59.08,39.0,10.96,75.28,40.19,34.64,-8.28,14.49,13.04,-15.49,36.7,64.7,21.39,-29.48,85.95,60.58,-56.16,-131.28,-2099.52
796,12.47,32.92,4.13,-14.31,34.7,27.6,5.54,-34.26,47.4,18.83,-30.29,5.5,34.74,-19.5,-68.28,52.28,23.89,-163.61,-199.34,-2622.14
797,-57.9,-49.91,-83.71,-98.19,-56.71,-61.25,-80.66,-96.72,-25.67,-64.38,-112.47,-55.55,-54.36,-104.46,-146.95,-25.7,-59.6,63.92,163.66,3636.16
798,14.84,32.46,9.22,-19.73,44.18,12.2,11.16,-29.61,-11.11,-16.76,-45.72,10.02,33.52,-10.14,-58.03,55.97,29.09,26.06,9.29,297.0
799,38.09,64.73,39.6,13.93,71.59,56.32,44.5,-6.64,51.79,35.44,-5.04,29.79,69.52,16.69,-34.48,82.78,56.7,-191.45,-258.27,-3908.88
800,-54.72,-40.74,-75.59,-87.68,-49.75,-47.65,-69.42,-89.44,-6.84,-49.36,-100.34,-54.58,-43.96,-96.91,-141.66,-19.86,-56.16,-6.21,61.21,2045.6
801,-19.94,-11.5,-37.5,-59.76,-4.27,-28.79,-33.89,-61.14,-37.44,-52.96,-84.08,-27.26,-13.55,-54.53,-101.34,13.12,-17.64,108.97,133.26,2571.28
802,46.88,73.7,53.07,24.09,87.44,62.27,59.14,4.7,37.64,33.03,0.12,35.67,78.92,33.94,-18.13,95.71,72.28,-149.74,-229.49,-3707.38
803,-28.5,-11.31,-44.55,-57.81,-17.18,-13.58,-34.98,-66.05,18.1,-17.91,-70.42,-41.04,-11.7,-63.86,-110.06,8.05,-21.73,-114.62,-81.14,-350.27
804,-55.04,-48.43,-80.14,-95.93,-48.6,-61.59,-74.11,-91.17,-50.1,-76.65,-115.28,-65.41,-52.18,-95.28,-137.39,-26.56,-57.62,109.55,184.21,3828.24
805,29.21,55.02,33.4,5.02,72.81,41.79,37.44,-10.68,6.53,6.71,-21.29,17.7,59.61,17.56,-33.06,75.95,53.31,-55.1,-137.25,-2128.1
806,5.36,30.59,0.92,-17.81,33.24,27.29,12.44,-33.44,42.25,15.88,-32.91,-6.79,34.18,-17.53,-66.86,50.19,27.35,-161.19,-197.41,-2629.68
807,-66.72,-54.98,-91.63,-105.83,-61.44,-66.2,-81.07,-99.06,-34.35,-71.6,-118.19,-72.18,-56.52,-106.01,-148.58,-30.33,-61.19,69.97,162.84,3628.47
808,10.23,25.83,0.79,-26.35,40.41,5.72,1.64,-31.57,-19.21,-22.85,-51.35,-6.41,31.2,-10.75,-58.99,54.74,28.43,33.44,7.26,279.03
809,32.42,59.8,31.38,9.99,67.8,49.37,38.59,-8.08,45.21,31.38,-9.65,11.12,66.96,17.34,-32.47,78.86,58.0,-167.05,-253.52,-3907.72
810,-63.82,-43.44,-84.13,-94.31,-53.49,-56.64,-74.83,-92.04,-14.04,-52.86,-104.8,-74.51,-45.12,-97.04,-138.0,-24.04,-50.4,-14.56,64.79,2014.39
811,-30.72,-16.9,-46.8,-66.81,-9.96,-38.72,-41.61,-64.43,-44.19,-58.62,-89.26,-53.87,-16.12,-56.89,-97.87,8.44,-15.41,89.17,129.33,2524.89
812,44.96,73.19,48.04,20.91,87.02,57.02,57.87,4.11,33.94,30.08,-2.14,16.36,79.43,32.36,-13.97,93.21,75.67,-135.78,-232.5,-3750.31
813,-29.16,-6.88,-44.96,-58.71,-13.18,-16.18,-25.4,-62.6,18.08,-18.49,-69.9,-55.55,-10.38,-64.26,-103.93,12.45,-15.39,-91.53,-71.3,-338.54
814,-53.93,-42.6,-79.78,-96.82,-44.61,-64.03,-63.01,-86.34,-49.24,-76.59,-113.94,-81.44,-49.95,-94.05,-132.05,-18.12,-48.34,109.85,193.9,3844.4
815,37.78,61.01,36.9,8.87,76.58,39.63,38.89,-2.4,7.8,7.93,-17.79,7.31,61.48,22.1,-23.63,87.35,66.6,-65.04,-124.02,-2128.35
816,8.54,32.2,1.65,-14.05,33.71,24.55,8.05,-27.3,40.82,15.68,-30.3,-24.14,32.22,-16.2,-58.83,56.76,35.38,-162.5,-190.79,-2598.62
817,-63.15,-52.44,-89.86,-101.38,-59.65,-69.11,-77.72,-92.17,-34.92,-70.86,-115.92,-90.11,-59.87,-102.78,-139.57,-24.09,-49.8,80.49,169.84,3660.88
818,0.38,23.48,-1.82,-26.22,34.98,-0.56,6.78,-29.33,-24.46,-28.24,-53.49,-27.52,20.61,-13.75,-56.56,51.97,35.54,36.78,10.01,301.74
819,24.62,54.98,29.52,8.67,63.63,44.62,41.0,-5.98,38.27,26.94,-12.1,-11.56,55.59,13.62,-31.69,77.46,64.1,-171.17,-256.48,-3920.87
820,-70.49,-48.58,-85.35,-93.44,-58.06,-56.47,-70.49,-87.6,-15.55,-54.21,-104.4,-89.97,-54.47,-97.55,-135.57,-20.09,-43.85,3.87,66.6,2053.83
821,-42.89,-22.21,-49.0,-68.11,-16.54,-41.58,-41.91,-63.47,-49.56,-61.27,-90.82,-54.17,-27.32,-59.32,-98.74,12.87,-6.3,109.47,131.61,2529.44
822,28.95,60.3,39.57,16.21,74.44,48.32,48.03,-0.86,23.79,22.94,-7.97,-3.03,60.81,26.27,-18.33,94.63,80.95,-128.52,-231.64,-3708.33
823,-43.8,-17.22,-52.08,-61.52,-22.14,-20.69,-33.44,-66.51,9.66,-22.73,-72.69,-77.15,-26.92,-65.76,-104.2,10.34,-9.3,-95.58,-74.39,-334.11
824,-69.82,-51.86,-85.14,-97.74,-53.07,-66.36,-70.26,-90.55,-57.7,-80.35,-115.43,-99.91,-70.95,-95.11,-129.82,-22.98,-41.58,125.37,193.16,3831.13
825,19.06,49.2,27.38,4.38,64.07,33.92,38.62,-7.84,-4.44,3.31,-22.16,-20.93,37.34,17.27,-23.49,78.59,68.37,-51.89,-126.06,-2127.29
826,-15.7,16.42,-12.81,-24.02,19.1,15.55,5.4,-35.95,23.39,6.35,-38.75,-62.47,-1.05,-25.96,-62.2,41.21,28.48,-169.54,-194.63,-2620.78
827,-91.99,-72.94,-106.34,-111.77,-77.65,-79.32,-88.43,-103.41,-57.91,-83.56,-125.76,-131.89,-96.98,-115.12,-145.0,-47.78,-64.5,69.1,165.53,3665.17
828,-12.96,11.41,-8.64,-29.91,25.38,-3.68,4.1,-33.43,-40.69,-31.45,-54.8,-54.89,-8.93,-16.18,-51.47,39.15,32.43,44.74,10.51,287.15
829,6.88,43.26,22.63,5.22,54.42,43.6,39.79,-10.73,23.14,23.79,-13.33,-39.95,23.41,9.97,-26.87,65.43,63.64,-176.19,-255.28,-3882.57
830,-85.09,-60.45,-91.36,-95.57,-64.7,-58.96,-71.52,-91.27,-33.62,-59.0,-106.0,-119.34,-87.7,-102.56,-131.75,-36.16,-45.08,-11.9,66.86,2057.97
831,-55.02,-29.23,-51.75,-66.45,-18.37,-41.09,-34.75,-62.84,-61.57,-61.73,-89.13,-94.22,-56.27,-59.46,-90.63,2.14,-7.22,98.61,135.23,2553.97
832,11.75,50.14,33.3,11.13,66.98,47.55,55.4,-2.43,7.08,17.74,-11.22,-27.73,27.84,20.69,-15.41,78.72,71.55,-133.73,-232.94,-3737.85
833,-61.59,-27.47,-58.14,-65.45,-32.44,-24.78,-36.97,-67.57,-4.56,-26.58,-74.78,-89.08,-54.63,-71.43,-101.84,0.93,-14.31,-90.86,-71.65,-303.13
834,-89.76,-62.79,-90.97,-100.53,-62.44,-71.92,-77.03,-93.15,-70.73,-81.13,-116.63,-108.22,-87.4,-97.8,-127.12,-25.4,-41.32,104.13,189.61,3835.12
835,7.75,41.35,23.27,3.03,57.43,31.2,34.79,-10.09,-13.19,2.35,-22.15,-21.6,26.29,16.74,-20.47,77.9,68.35,-60.92,-132.14,-2119.92
836,-31.08,13.2,-13.99,-23.41,12.16,15.21,6.98,-36.46,16.96,6.72,-37.46,-55.11,-4.85,-23.27,-59.64,39.69,28.48,-153.55,-194.12,-2591.86
837,-102.81,-75.37,-106.22,-109.34,-81.03,-77.35,-79.17,-101.17,-60.35,-80.52,-122.25,-118.89,-96.84,-111.43,-140.17,-44.72,-58.95,78.95,168.61,3661.45
838,-25.47,7.88,-10.65,-29.26,22.08,-1.91,6.8,-32.61,-45.04,-30.54,-53.98,-51.13,-9.39,-16.44,-51.21,40.39,33.52,31.78,6.08,252.59
839,-2.02,41.26,23.27,7.92,52.03,44.54,42.92,-9.35,21.27,25.36,-10.78,-30.93,29.31,13.13,-25.33,67.93,63.43,-179.17,-258.44,-3900.69
840,-87.87,-58.82,-87.69,-91.82,-64.74,-54.75,-67.92,-90.43,-33.26,-54.65,-102.68,-106.1,-78.84,-97.27,-129.53,-30.28,-45.45,1.97,66.58,2076.88
841,-49.59,-24.24,-45.19,-61.3,-17.33,-34.09,-38.63,-61.29,-59.91,-55.21,-83.43,-71.37,-42.09,-52.08,-85.9,8.05,-2.26,106.2,136.63,2537.12
842,22.44,60.88,45.89,25.44,75.8,57.67,51.63,5.28,17.31,33.03,2.0,-8.47,52.87,35.8,-2.85,91.14,86.02,-141.8,-228.71,-3665.57
843,-58.88,-20.36,-47.42,-52.3,-25.94,-15.34,-31.8,-61.36,1.95,-14.09,-63.77,-73.35,-31.44,-56.56,-90.16,11.99,-5.7,-102.8,-67.51,-284.17
844,-82.44,-56.32,-80.83,-88.48,-56.45,-62.31,-66.28,-84.87,-65.09,-70.09,-106.01,-92.66,-66.37,-84.29,-116.55,-17.52,-35.33,120.78,195.44,3869.48
845,16.0,51.47,38.62,18.26,69.76,45.17,46.72,3.1,-2.07,18.78,-6.86,0.19,49.62,33.65,-5.94,92.37,82.15,-25.45,-123.08,-2123.09
846,-22.69,18.75,-3.21,-10.92,20.81,24.26,12.1,-26.81,27.89,19.84,-26.11,-33.97,18.37,-12.24,-50.01,56.97,40.6,-137.08,-187.86,-2571.48
847,-92.73,-71.59,-97.05,-100.95,-76.5,-71.91,-79.39,-94.27,-50.64,-69.71,-113.32,-102.64,-75.4,-101.25,-133.57,-27.94,-48.61,76.72,169.53,3668.94
848,-15.21,11.66,-2.31,-20.18,26.37,4.9,11.76,-24.15,-35.43,-21.94,-45.87,-30.05,12.34,-5.62,-42.75,54.05,41.32,26.61,10.3,275.91
849,4.73,41.5,26.17,11.79,53.03,48.59,43.52,-5.77,24.11,27.87,-8.09,-10.48,42.77,16.17,-23.47,73.31,64.81,-190.73,-259.6,-3888.92
850,-92.66,-66.0,-90.69,-91.93,-68.24,-55.08,-66.2,-90.62,-35.04,-58.24,-104.62,-96.14,-71.72,-100.37,-131.19,-32.62,-50.0,-16.49,61.28,2082.62
851,-57.43,-30.68,-49.01,-60.83,-21.19,-33.36,-29.86,-57.88,-60.54,-58.18,-84.85,-56.68,-33.47,-54.84,-86.61,8.03,-6.97,92.12,129.14,2535.72
852,21.76,56.2,42.15,25.49,73.94,60.18,62.66,9.84,17.72,29.12,0.66,8.64,59.06,34.04,-3.83,92.09,82.17,-132.18,-229.57,-3708.47
853,-53.32,-26.4,-52.14,-54.18,-27.92,-13.33,-23.93,-56.74,2.13,-19.23,-66.38,-57.53,-27.98,-60.88,-92.05,7.1,-9.54,-80.67,-69.04,-291.22
854,-80.48,-62.19,-85.15,-90.63,-56.8,-59.56,-61.31,-80.74,-65.04,-77.05,-110.25,-77.06,-67.77,-91.4,-118.85,-25.03,-43.71,133.61,194.04,3845.17
855,9.27,39.11,26.54,9.62,61.63,39.03,47.62,0.19,-10.12,5.41,-17.6,3.58,44.11,20.54,-13.38,77.52,67.37,-60.78,-127.72,-2122.3
856,-18.87,11.89,-9.71,-15.57,19.35,25.13,21.12,-24.67,25.23,12.57,-29.29,-17.88,19.83,-15.98,-47.93,46.86,34.7,-156.87,-188.9,-2567.04
857,-98.77,-79.46,-106.39,-107.3,-82.13,-73.21,-78.46,-96.7,-56.15,-80.53,-120.75,-93.0,-79.14,-110.45,-136.16,-42.3,-59.17,71.71,163.42,3683.06
858,-25.12,0.63,-12.07,-28.21,18.25,-0.68,13.56,-28.71,-41.61,-31.64,-53.08,-20.8,7.46,-16.2,-47.13,40.7,33.12,15.91,3.57,253.13
859,8.69,35.96,21.86,8.93,49.7,47.74,54.9,-3.12,29.09,27.16,-8.12,7.57,47.96,14.88,-19.16,72.01,61.92,-190.1,-253.31,-3833.13
860,-84.03,-64.63,-88.03,-90.61,-67.7,-52.6,-61.4,-83.03,-22.37,-51.49,-98.83,-70.01,-55.13,-93.06,-120.5,-25.33,-46.8,-6.98,70.83,2122.4
861,-53.95,-33.2,-48.52,-61.63,-22.0,-34.54,-31.06,-55.83,-50.63,-53.4,-81.95,-40.72,-18.65,-48.8,-78.76,10.58,-7.27,104.99,133.63,2574.55
862,27.92,59.26,45.83,27.27,73.86,61.21,60.16,11.35,28.63,35.64,5.19,28.82,77.55,42.69,4.58,96.37,83.38,-137.62,-226.92,-3706.61
863,-52.21,-25.91,-49.48,-52.65,-32.16,-15.87,-29.32,-58.15,8.55,-16.06,-63.35,-39.79,-13.97,-53.94,-84.49,10.33,-7.68,-96.88,-62.66,-247.27
864,-72.79,-55.59,-76.93,-84.36,-56.84,-57.54,-63.6,-80.25,-53.39,-67.54,-101.77,-62.08,-45.8,-77.75,-105.44,-12.86,-32.02,119.56,199.05,3866.74
865,12.04,43.79,35.09,13.3,59.31,40.88,47.03,-2.06,0.92,12.82,-10.91,16.61,60.72,30.1,-3.44,84.76,73.83,-56.51,-125.94,-2125.52
866,-23.52,10.57,-5.8,-16.3,10.15,19.83,14.28,-31.22,27.46,13.18,-30.16,-12.48,25.78,-15.44,-47.04,47.29,30.51,-151.35,-188.65,-2516.4
867,-90.36,-72.19,-94.3,-100.28,-79.74,-69.41,-76.91,-93.95,-47.82,-72.32,-112.63,-74.78,-65.79,-100.53,-127.89,-31.41,-53.22,100.71,174.93,3691.81
868,-14.37,7.57,-1.86,-21.57,20.33,2.78,8.97,-28.32,-34.46,-24.81,-46.63,-1.22,18.35,-8.17,-39.91,51.22,35.69,46.42,11.21,267.02
869,10.25,41.86,30.73,13.47,49.55,47.47,49.08,-6.01,31.3,31.81,-3.66,23.13,57.07,20.73,-14.71,80.69,68.4,-171.04,-248.58,-3873.92
870,-84.64,-65.45,-88.3,-92.68,-74.7,-59.42,-65.94,-89.95,-27.34,-54.81,-101.52,-60.68,-57.08,-94.51,-121.99,-22.85,-43.58,-11.96,73.04,2143.73
871,-51.84,-35.37,-50.12,-63.61,-30.04,-41.34,-37.99,-62.77,-57.86,-59.45,-85.53,-30.63,-25.07,-52.98,-81.41,8.04,-8.27,83.65,133.41,2549.34
872,22.7,51.58,42.57,24.85,63.9,51.92,55.0,4.93,22.93,29.73,2.09,37.86,69.76,36.19,2.47,91.08,78.61,-141.04,-224.86,-3686.53
873,-56.86,-27.62,-47.37,-53.31,-35.17,-19.79,-29.0,-61.05,10.59,-15.93,-62.45,-27.75,-13.69,-55.89,-85.27,10.93,-11.38,-79.84,-60.9,-235.05
874,-70.62,-56.46,-77.34,-86.92,-60.54,-62.82,-61.7,-80.56,-51.35,-67.53,-101.88,-42.8,-44.84,-78.72,-107.87,-11.79,-35.61,131.12,200.99,3868.42
875,23.18,42.6,33.01,12.45,54.66,34.39,38.51,-2.61,2.03,13.45,-10.96,34.9,61.11,30.42,-6.62,88.83,71.05,-52.89,-122.93,-2142.06
876,-13.48,14.17,-4.1,-13.65,10.52,16.52,5.0,-29.11,35.03,18.42,-25.02,4.52,31.01,-9.51,-44.3,54.73,36.07,-159.43,-178.6,-2538.21
877,-86.64,-65.57,-91.39,-94.93,-78.33,-71.49,-82.17,-91.58,-36.33,-63.04,-105.07,-50.82,-55.39,-93.47,-121.03,-23.2,-48.58,86.34,180.98,3686.72
878,-10.52,15.11,3.62,-16.76,23.61,3.88,10.43,-25.19,-20.05,-15.08,-38.98,9.48,31.35,0.14,-33.55,58.2,40.9,46.96,17.91,262.51
879,15.48,49.81,35.85,18.84,54.03,50.24,51.22,-0.12,46.06,40.65,3.76,32.08,69.32,28.32,-8.32,88.02,70.46,-161.42,-242.84,-3836.81
880,-69.23,-50.98,-76.0,-80.89,-63.26,-51.3,-64.97,-79.78,-7.65,-39.05,-86.4,-41.47,-38.56,-80.82,-108.69,-14.44,-39.02,-0.46,83.34,2133.83
881,-49.22,-34.15,-48.37,-65.29,-34.29,-48.69,-40.34,-62.69,-50.31,-54.09,-81.51,-22.35,-18.52,-49.36,-78.77,3.68,-11.66,95.34,134.89,2532.3
882,2.84,37.58,29.55,10.27,41.38,30.25,42.43,-6.32,13.23,19.41,-8.9,17.21,57.42,24.42,-9.79,67.36,59.09,-155.48,-235.21,-3631.18
883,-75.16,-48.75,-67.38,-70.61,-66.58,-48.76,-53.26,-74.64,-4.1,-29.87,-76.88,-50.32,-30.69,-71.1,-97.93,-15.59,-33.95,-109.7,-70.1,-72.69
884,-80.71,-60.94,-77.87,-86.47,-71.37,-71.78,-75.03,-80.68,-50.09,-65.81,-99.49,-50.01,-48.29,-77.95,-102.69,-22.0,-42.2,122.8,205.63,4052.23
885,43.35,72.05,62.58,38.76,81.19,57.37,53.12,20.2,33.79,43.33,18.02,61.88,90.33,59.56,24.92,111.05,94.74,-26.76,-99.17,-1920.84
886,22.23,49.2,32.37,18.22,47.27,50.03,28.13,-1.23,69.87,54.75,8.08,43.16,68.92,24.62,-7.9,86.44,65.86,-125.97,-154.48,-2421.26
887,-50.14,-37.64,-60.78,-68.85,-48.01,-44.37,-64.82,-68.69,-10.2,-34.3,-78.54,-24.48,-27.45,-63.83,-89.43,4.91,-20.81,110.28,203.84,3732.81
