,Fp1,F3,C3,P3,F7,T3,T5,O1,Fz,Cz,Pz,Fp2,F4,C4,P4,F8,T4,T6,O2,EKG
0,-590.42,-557.66,-478.28,-586.66,-576.59,-537.46,-554.33,-605.81,-560.6,-526.63,-557.3,-551.03,-498.55,-460.65,-548.75,-546.3,-525.33,-593.19,-491.98,46.62
1,-587.76,-563.63,-481.76,-589.86,-579.71,-537.37,-556.32,-609.35,-563.71,-530.55,-561.55,-557.03,-507.02,-466.73,-555.47,-548.19,-534.9,-604.09,-499.43,15.77
2,-590.48,-563.96,-482.04,-588.68,-574.16,-532.34,-550.18,-606.45,-568.27,-534.05,-563.06,-555.97,-511.81,-473.11,-560.42,-559.17,-538.06,-606.92,-501.01,47.67
3,-593.18,-563.26,-476.16,-582.91,-565.64,-520.8,-544.15,-600.87,-568.19,-530.25,-558.79,-559.81,-516.12,-468.73,-554.6,-563.51,-520.88,-599.19,-494.14,105.31
4,-588.82,-556.73,-470.41,-573.3,-556.79,-519.24,-537.08,-589.69,-560.07,-520.92,-548.85,-557.87,-520.23,-455.42,-540.69,-557.2,-514.86,-586.95,-482.35,77.9
5,-579.84,-548.69,-464.52,-565.22,-548.72,-507.82,-526.5,-578.65,-554.62,-514.66,-541.51,-550.31,-504.43,-451.21,-532.47,-552.62,-514.74,-575.88,-473.95,97.47
6,-577.71,-553.47,-465.53,-567.75,-550.15,-509.67,-530.65,-583.5,-556.49,-516.98,-543.92,-541.13,-510.18,-455.11,-533.51,-547.82,-502.94,-572.62,-476.46,153.88
7,-581.92,-558.63,-471.27,-572.91,-558.15,-519.0,-538.28,-589.05,-561.55,-520.73,-548.18,-544.23,-518.97,-459.01,-538.74,-557.83,-516.44,-582.09,-483.29,158.87
8,-577.51,-552.32,-471.16,-574.54,-554.87,-522.84,-540.56,-588.67,-555.84,-519.58,-550.74,-543.85,-511.5,-460.31,-542.3,-560.35,-527.21,-588.39,-486.05,147.0
9,-587.92,-559.39,-476.6,-581.0,-557.48,-526.68,-547.79,-594.87,-564.79,-526.24,-556.45,-561.82,-526.5,-468.08,-547.97,-575.4,-536.77,-596.19,-491.26,205.85
10,-592.47,-563.79,-478.01,-577.99,-556.19,-516.2,-543.6,-593.78,-570.68,-526.73,-555.76,-561.32,-524.29,-469.35,-545.93,-585.51,-532.48,-598.83,-490.5,219.15
11,-584.34,-559.47,-476.21,-577.15,-553.76,-516.36,-542.28,-591.91,-566.69,-527.55,-556.45,-553.86,-524.16,-470.93,-547.57,-584.33,-537.66,-601.68,-491.22,139.07
12,-595.23,-569.34,-482.96,-580.99,-558.95,-522.61,-545.96,-593.61,-576.65,-534.55,-560.2,-565.94,-536.05,-478.16,-552.2,-596.51,-551.74,-605.74,-492.92,154.3
13,-585.35,-558.0,-469.94,-565.8,-544.66,-510.7,-533.82,-580.59,-565.34,-520.94,-545.92,-559.58,-529.18,-469.42,-537.46,-576.16,-545.12,-582.71,-477.57,190.9
14,-572.08,-555.28,-469.39,-560.97,-539.74,-508.72,-531.46,-576.49,-565.0,-519.37,-543.05,-527.79,-527.24,-466.05,-535.15,-572.82,-524.47,-586.24,-476.83,187.73
15,-574.84,-554.92,-465.43,-556.29,-541.05,-505.5,-527.59,-573.07,-563.04,-513.99,-537.83,-535.41,-527.09,-463.42,-532.17,-580.35,-523.24,-583.59,-473.12,175.33
16,-577.67,-554.56,-465.01,-555.01,-540.35,-502.78,-524.3,-570.84,-565.09,-514.93,-538.95,-567.99,-523.2,-465.89,-532.74,-587.6,-528.24,-583.49,-473.3,221.22
17,-577.93,-557.32,-467.98,-557.7,-540.78,-507.06,-529.23,-574.12,-565.9,-516.47,-542.24,-559.34,-536.29,-466.87,-533.69,-593.07,-546.12,-587.93,-474.27,185.57
18,-571.22,-549.77,-463.49,-553.78,-534.04,-503.11,-525.66,-568.32,-561.72,-513.19,-539.25,-538.43,-530.83,-464.78,-531.04,-580.29,-541.95,-585.0,-472.02,160.09
19,-570.29,-547.91,-461.9,-550.99,-525.66,-495.75,-519.05,-563.28,-560.36,-511.3,-537.8,-544.76,-525.56,-462.3,-526.88,-580.77,-531.88,-577.87,-468.81,221.9
20,-572.73,-551.59,-462.76,-552.17,-524.73,-493.76,-518.81,-564.81,-560.91,-513.59,-538.81,-557.97,-534.04,-466.23,-529.63,-595.73,-533.43,-578.56,-469.21,241.76
21,-578.41,-558.28,-473.23,-564.12,-529.96,-504.18,-530.26,-576.79,-571.36,-525.87,-552.62,-535.04,-544.56,-480.29,-544.14,-607.78,-552.49,-595.6,-484.79,186.49
22,-582.01,-560.94,-478.34,-569.76,-530.19,-499.75,-534.77,-583.19,-574.94,-531.68,-559.6,-552.84,-547.88,-488.22,-551.34,-611.78,-549.79,-604.06,-490.63,223.6
23,-558.7,-537.41,-455.83,-547.06,-509.19,-481.9,-513.58,-561.54,-552.51,-510.35,-539.26,-542.94,-527.89,-468.6,-530.25,-590.82,-524.04,-583.82,-470.06,273.94
24,-547.13,-527.22,-445.46,-535.17,-500.25,-473.91,-505.38,-551.86,-542.03,-498.98,-526.51,-517.98,-521.0,-454.05,-514.91,-580.5,-526.3,-565.38,-458.03,211.83
25,-550.44,-533.09,-450.82,-539.1,-503.35,-481.27,-511.35,-555.4,-547.09,-502.62,-528.82,-526.55,-526.0,-457.34,-514.62,-588.78,-514.88,-559.64,-456.08,216.66
26,-568.22,-553.53,-469.06,-553.4,-517.36,-499.53,-526.0,-566.43,-570.46,-521.23,-545.2,-521.78,-543.14,-475.74,-527.89,-602.03,-527.25,-568.28,-464.72,260.92
27,-571.55,-555.29,-470.96,-552.65,-517.12,-495.08,-526.14,-564.59,-577.87,-523.91,-545.69,-535.05,-548.95,-476.35,-526.33,-603.29,-542.98,-570.27,-461.39,279.61
28,-563.47,-550.48,-462.21,-543.49,-511.65,-480.1,-512.52,-556.09,-565.73,-518.15,-540.23,-548.26,-541.21,-475.99,-524.38,-610.51,-551.66,-571.06,-455.68,265.71
29,-577.34,-561.87,-468.72,-548.07,-519.55,-483.2,-512.88,-557.46,-578.0,-525.93,-547.11,-556.21,-558.55,-484.79,-531.54,-627.09,-546.69,-578.98,-458.54,239.66
30,-584.09,-565.52,-475.19,-554.16,-524.91,-491.96,-521.08,-563.44,-584.94,-530.86,-552.57,-557.78,-565.24,-490.52,-536.28,-633.71,-553.39,-584.52,-464.29,211.68
31,-579.43,-565.49,-477.46,-556.25,-524.81,-496.36,-526.07,-567.84,-583.07,-533.23,-555.17,-552.85,-563.28,-494.47,-539.31,-630.74,-560.41,-593.13,-467.02,160.72
32,-569.53,-556.34,-466.68,-545.3,-515.71,-483.77,-514.23,-556.48,-574.95,-523.92,-544.07,-548.28,-552.95,-486.11,-528.36,-621.76,-547.9,-582.19,-455.37,125.6
33,-571.24,-553.99,-461.04,-539.44,-510.32,-478.05,-506.85,-550.55,-572.56,-518.63,-539.22,-542.86,-550.2,-481.31,-520.65,-619.67,-544.55,-571.36,-446.25,113.46
34,-568.0,-546.37,-454.42,-532.37,-503.54,-473.69,-502.0,-543.98,-562.59,-510.46,-531.37,-532.35,-538.86,-475.02,-512.09,-612.79,-535.91,-559.53,-442.47,69.85
35,-560.27,-543.21,-452.03,-529.64,-499.61,-472.01,-500.3,-540.55,-560.4,-507.55,-528.9,-521.95,-545.48,-472.67,-511.01,-612.76,-540.48,-565.02,-441.79,62.48
36,-570.18,-548.8,-457.7,-533.45,-505.12,-470.95,-504.5,-544.27,-566.98,-511.58,-534.42,-546.04,-558.37,-477.07,-515.42,-621.93,-532.75,-565.09,-443.46,125.63
37,-564.67,-548.85,-458.69,-533.15,-503.6,-471.28,-503.33,-544.18,-567.79,-513.33,-535.47,-537.47,-552.23,-479.36,-516.03,-619.79,-541.86,-565.08,-444.88,77.35
38,-554.19,-544.96,-454.73,-528.57,-499.05,-467.54,-499.44,-540.03,-560.59,-508.89,-531.75,-528.82,-543.52,-474.49,-511.4,-611.82,-537.86,-562.36,-441.6,47.6
39,-564.72,-548.7,-458.34,-531.32,-502.21,-466.41,-500.43,-540.2,-566.46,-513.27,-535.24,-532.67,-550.68,-479.84,-512.15,-615.3,-536.86,-557.92,-441.37,146.52
40,-572.91,-556.88,-463.89,-535.69,-509.79,-473.91,-505.42,-543.86,-574.57,-518.92,-540.09,-535.95,-557.84,-481.84,-513.48,-618.08,-533.57,-562.47,-443.17,147.77
41,-571.72,-558.12,-469.73,-542.66,-513.29,-481.98,-513.2,-550.78,-577.25,-524.8,-546.27,-531.15,-562.57,-488.25,-520.61,-622.59,-549.65,-569.52,-447.31,60.66
42,-584.1,-570.48,-481.19,-553.8,-524.51,-491.01,-522.06,-559.42,-587.2,-536.42,-556.9,-548.12,-574.32,-504.03,-531.44,-639.33,-555.41,-579.25,-452.93,87.08
43,-591.06,-573.55,-480.91,-549.1,-527.63,-486.97,-515.43,-554.24,-589.41,-535.31,-554.6,-564.14,-577.24,-502.23,-529.51,-640.07,-557.58,-580.62,-448.16,184.53
44,-576.63,-563.14,-470.79,-537.19,-519.04,-476.75,-502.59,-541.13,-579.55,-523.37,-542.09,-548.27,-564.75,-491.02,-517.98,-626.23,-560.54,-569.15,-434.72,166.21
45,-555.93,-548.59,-457.37,-521.72,-504.19,-462.95,-489.21,-527.23,-560.09,-508.15,-527.3,-519.52,-544.59,-475.05,-500.76,-607.59,-528.46,-546.59,-420.93,136.05
46,-562.11,-552.36,-460.5,-523.61,-506.08,-467.25,-494.16,-528.5,-563.67,-510.12,-528.73,-533.51,-551.26,-474.1,-498.82,-599.83,-526.47,-543.34,-418.89,130.2
47,-570.4,-561.89,-472.13,-535.6,-518.98,-482.22,-507.33,-540.16,-577.11,-521.83,-540.41,-529.58,-556.5,-485.97,-510.74,-610.87,-532.88,-555.56,-429.09,107.34
48,-568.42,-565.48,-478.26,-542.44,-524.42,-491.12,-515.49,-547.6,-581.69,-527.66,-547.47,-518.45,-567.14,-493.49,-518.49,-615.36,-547.21,-562.2,-434.18,63.06
49,-577.91,-570.54,-481.67,-546.33,-525.34,-495.45,-519.68,-549.95,-583.57,-531.13,-550.97,-533.11,-578.15,-499.16,-523.38,-620.57,-556.16,-570.87,-439.13,103.34
50,-569.89,-562.53,-472.59,-536.56,-516.3,-475.02,-509.51,-541.18,-578.11,-521.8,-541.77,-530.12,-562.58,-489.56,-512.01,-614.04,-544.86,-558.0,-428.9,138.84
51,-545.46,-543.85,-456.57,-521.44,-500.71,-463.15,-493.48,-525.8,-559.11,-504.61,-526.12,-521.67,-545.24,-474.61,-497.31,-595.92,-525.81,-541.75,-415.44,126.51
52,-564.34,-556.42,-470.11,-535.12,-513.01,-476.72,-505.52,-538.56,-570.52,-518.84,-540.39,-537.31,-566.21,-489.03,-511.16,-608.52,-539.24,-552.04,-427.79,130.17
53,-585.54,-575.19,-484.35,-548.83,-531.35,-491.19,-521.39,-552.06,-588.81,-534.63,-554.9,-557.71,-576.73,-503.45,-524.59,-622.74,-544.78,-570.62,-439.26,143.73
54,-573.25,-564.45,-475.94,-540.17,-522.59,-485.53,-515.02,-545.8,-579.05,-525.6,-546.84,-538.02,-565.29,-494.05,-515.04,-613.81,-540.82,-563.12,-432.82,43.96
55,-553.17,-547.61,-460.98,-525.55,-505.68,-468.97,-499.27,-531.05,-563.19,-511.65,-532.57,-508.47,-548.26,-481.42,-501.11,-597.48,-530.9,-546.65,-420.25,-4.21
56,-555.81,-546.21,-458.65,-522.6,-504.91,-467.3,-496.55,-529.78,-561.78,-507.38,-529.36,-520.3,-550.74,-477.54,-494.13,-590.54,-511.74,-539.11,-414.87,130.9
57,-550.38,-544.29,-456.99,-519.6,-502.33,-462.55,-495.88,-527.95,-559.52,-501.8,-525.97,-514.25,-546.03,-473.32,-490.63,-587.34,-524.68,-539.26,-411.93,260.87
58,-544.42,-544.13,-457.83,-521.38,-503.68,-467.04,-497.86,-529.5,-556.65,-501.63,-524.72,-500.67,-541.35,-474.51,-489.41,-586.74,-523.32,-536.18,-410.55,278.09
59,-539.09,-538.49,-453.18,-516.51,-497.45,-460.69,-494.2,-526.49,-552.67,-495.83,-518.49,-489.22,-535.45,-469.84,-482.24,-578.97,-522.53,-532.48,-403.08,260.06
60,-550.98,-550.22,-463.16,-524.35,-508.58,-474.46,-505.5,-534.61,-561.43,-507.34,-528.09,-509.95,-553.92,-480.18,-489.91,-587.33,-524.41,-534.73,-405.8,222.53
61,-557.59,-555.44,-468.84,-528.01,-519.14,-479.65,-511.61,-536.53,-565.21,-512.79,-533.29,-516.01,-557.56,-486.29,-495.53,-594.31,-527.3,-542.45,-409.6,128.04
62,-560.03,-558.85,-470.11,-528.25,-522.48,-488.48,-511.68,-536.4,-568.24,-514.72,-532.15,-521.02,-553.16,-488.12,-497.64,-600.81,-529.05,-546.86,-408.71,129.33
63,-566.06,-564.51,-471.71,-529.31,-528.83,-487.89,-516.01,-537.1,-573.31,-515.55,-532.34,-528.93,-561.87,-487.72,-495.86,-599.14,-524.9,-544.65,-407.31,140.37
64,-556.53,-551.83,-461.39,-516.57,-515.51,-475.75,-503.49,-524.64,-564.65,-503.45,-520.88,-509.62,-553.78,-476.16,-482.9,-584.0,-522.66,-536.26,-399.38,80.0
65,-562.11,-557.06,-464.46,-518.46,-517.08,-476.58,-503.48,-525.58,-568.27,-507.55,-522.48,-523.71,-554.17,-481.95,-486.92,-591.63,-524.93,-540.09,-401.55,54.09
66,-557.1,-551.45,-459.1,-512.11,-511.28,-466.66,-493.82,-518.03,-567.71,-502.9,-516.82,-529.23,-550.01,-479.52,-481.6,-584.28,-519.99,-533.96,-396.77,51.14
67,-558.93,-551.84,-459.63,-512.24,-510.78,-466.53,-495.13,-518.55,-565.38,-501.52,-517.91,-519.27,-553.74,-480.44,-481.26,-588.36,-532.32,-532.69,-394.4,13.98
68,-567.1,-561.03,-471.36,-524.58,-521.55,-482.12,-508.5,-531.84,-574.5,-512.98,-530.54,-514.53,-565.52,-491.17,-491.48,-595.46,-526.15,-541.0,-403.22,25.88
69,-556.75,-555.17,-464.96,-518.07,-516.68,-472.64,-499.42,-523.04,-567.1,-507.42,-525.26,-513.16,-550.09,-486.79,-486.58,-588.2,-519.17,-532.57,-397.86,88.04
70,-561.63,-560.53,-470.71,-522.06,-519.16,-476.26,-504.06,-526.78,-572.34,-512.34,-530.11,-515.77,-560.52,-492.49,-492.36,-592.71,-528.64,-540.27,-400.83,90.21
71,-568.25,-566.44,-479.87,-528.23,-529.93,-488.09,-511.53,-532.38,-576.6,-519.02,-537.29,-518.24,-570.12,-500.53,-498.42,-592.85,-533.99,-545.81,-406.04,46.03
72,-564.86,-563.81,-470.47,-521.08,-526.48,-479.91,-500.95,-524.76,-570.78,-511.33,-530.69,-520.04,-559.84,-493.23,-494.07,-590.15,-534.45,-543.16,-403.04,47.44
73,-555.33,-553.48,-454.76,-504.16,-513.97,-462.24,-483.21,-509.27,-562.05,-496.72,-515.03,-516.84,-544.8,-479.08,-479.11,-581.05,-520.1,-531.97,-389.43,50.77
74,-542.6,-543.47,-446.18,-496.85,-508.04,-455.83,-480.34,-505.14,-548.21,-487.85,-507.53,-513.37,-531.77,-469.53,-469.52,-571.89,-499.55,-519.52,-382.37,-6.51
75,-551.73,-550.99,-457.03,-510.46,-515.83,-469.83,-493.21,-518.99,-557.07,-499.5,-519.96,-510.47,-540.35,-482.3,-481.77,-578.19,-521.03,-526.56,-393.56,-28.69
76,-558.72,-555.12,-461.87,-513.19,-519.39,-469.29,-495.89,-522.56,-566.1,-505.6,-525.95,-513.82,-549.44,-488.53,-487.34,-581.69,-527.49,-536.55,-397.92,35.71
77,-547.47,-544.03,-453.9,-506.04,-509.02,-464.84,-485.41,-513.33,-556.59,-498.85,-518.16,-504.45,-544.24,-481.88,-479.73,-574.61,-507.17,-527.55,-390.41,14.26
78,-537.53,-541.87,-455.72,-508.97,-503.48,-457.09,-485.58,-514.66,-554.8,-500.42,-519.09,-491.51,-552.17,-480.8,-478.9,-569.22,-507.47,-526.26,-390.47,-13.64
79,-551.4,-553.09,-459.97,-513.31,-511.59,-461.79,-489.61,-520.69,-566.93,-506.59,-524.96,-512.01,-557.03,-486.9,-485.05,-580.11,-523.84,-531.52,-395.9,37.43
80,-567.53,-564.36,-468.4,-521.45,-522.64,-469.59,-495.6,-528.81,-576.22,-516.63,-535.82,-530.46,-568.59,-500.73,-497.94,-599.0,-540.06,-546.78,-406.1,45.59
81,-560.17,-560.39,-463.96,-516.24,-517.5,-462.52,-489.78,-524.11,-574.05,-512.52,-531.88,-523.82,-558.48,-496.44,-494.22,-600.35,-528.67,-544.62,-402.52,-13.57
82,-550.28,-546.34,-448.44,-499.86,-500.32,-446.8,-473.19,-509.24,-561.27,-498.97,-517.3,-518.66,-552.03,-481.27,-478.96,-590.49,-516.85,-526.76,-387.53,21.7
83,-559.19,-551.11,-450.35,-500.02,-503.97,-448.37,-473.16,-508.87,-565.65,-500.95,-516.87,-527.06,-563.56,-482.59,-477.18,-595.55,-513.98,-524.84,-385.81,87.3
84,-557.71,-554.67,-454.78,-502.45,-506.54,-449.11,-475.92,-511.55,-572.89,-506.71,-520.28,-510.51,-563.42,-490.7,-482.91,-597.6,-521.44,-528.6,-388.26,68.25
85,-551.78,-554.09,-454.63,-501.75,-507.79,-449.12,-479.09,-513.4,-572.72,-505.05,-519.22,-510.28,-557.84,-487.46,-482.16,-591.43,-525.5,-528.15,-389.44,114.12
86,-569.93,-560.44,-458.05,-505.55,-513.93,-458.59,-482.7,-516.68,-575.9,-507.57,-522.5,-536.35,-568.33,-493.17,-489.32,-604.09,-528.48,-536.15,-394.53,212.59
87,-562.93,-549.98,-450.12,-498.81,-502.81,-445.8,-474.84,-509.28,-565.28,-500.17,-516.4,-532.55,-564.08,-487.53,-483.63,-596.31,-519.71,-530.62,-387.92,161.04
88,-545.75,-538.21,-441.9,-492.24,-492.24,-442.45,-469.25,-503.94,-550.75,-490.03,-509.18,-510.14,-546.59,-478.46,-474.35,-579.28,-516.94,-525.65,-379.86,133.76
89,-553.65,-544.7,-447.66,-498.54,-500.63,-451.59,-476.27,-511.37,-559.73,-496.72,-514.94,-518.31,-554.52,-482.39,-476.74,-585.59,-521.08,-527.43,-382.36,180.48
90,-557.63,-545.31,-450.51,-498.92,-502.86,-451.3,-476.75,-510.57,-562.69,-497.98,-515.76,-525.34,-559.67,-484.78,-477.07,-592.71,-527.16,-528.76,-382.04,179.2
91,-557.36,-553.55,-455.35,-502.31,-507.43,-461.87,-479.48,-513.19,-569.23,-503.87,-519.38,-511.99,-565.13,-491.34,-483.32,-597.94,-537.19,-535.17,-384.53,95.04
92,-547.66,-544.59,-443.2,-491.02,-496.81,-445.89,-468.98,-503.25,-559.7,-491.3,-506.94,-502.53,-556.15,-477.98,-468.87,-582.93,-514.31,-518.97,-373.27,138.65
93,-545.76,-539.96,-439.13,-488.03,-493.26,-439.35,-467.64,-501.88,-557.01,-487.15,-503.17,-516.63,-544.43,-476.85,-466.09,-578.23,-504.24,-514.48,-371.47,175.49
94,-541.04,-536.75,-436.99,-485.21,-490.93,-439.71,-465.63,-498.74,-554.13,-485.12,-500.78,-499.28,-544.95,-472.94,-462.83,-576.96,-500.79,-509.89,-367.72,95.88
95,-529.87,-526.0,-427.07,-476.3,-480.05,-424.45,-453.5,-490.15,-541.71,-474.47,-491.7,-480.5,-538.84,-463.01,-454.26,-559.23,-498.5,-503.14,-360.48,133.17
96,-537.66,-529.19,-430.1,-480.77,-486.63,-435.26,-458.32,-495.48,-546.94,-480.68,-496.58,-502.41,-539.88,-470.13,-458.89,-563.22,-493.11,-504.47,-363.89,270.77
97,-542.55,-532.43,-432.99,-483.76,-489.19,-438.85,-464.07,-500.07,-547.48,-483.89,-502.0,-510.67,-539.19,-471.76,-462.39,-568.41,-492.85,-509.24,-368.93,215.61
98,-542.5,-536.43,-438.3,-489.05,-497.87,-440.08,-466.88,-505.01,-549.56,-491.02,-509.81,-507.21,-545.82,-480.96,-472.96,-575.3,-511.04,-520.44,-378.5,108.35
99,-552.13,-541.68,-442.9,-493.09,-501.76,-445.34,-470.42,-508.43,-558.14,-495.38,-514.09,-515.92,-551.72,-487.92,-477.41,-583.8,-518.75,-525.01,-382.81,117.0
100,-550.05,-542.04,-441.82,-491.89,-500.76,-450.02,-471.82,-508.64,-559.47,-493.22,-512.72,-515.75,-554.27,-484.66,-474.39,-577.29,-521.59,-523.93,-382.41,108.41
101,-538.46,-531.71,-433.83,-484.81,-494.87,-443.15,-467.24,-502.94,-547.35,-485.24,-506.92,-494.76,-538.35,-478.59,-468.84,-563.43,-506.41,-516.3,-378.26,50.49
102,-534.38,-529.59,-430.67,-481.69,-493.14,-437.54,-461.86,-498.29,-543.74,-483.26,-505.56,-495.5,-538.66,-476.29,-469.09,-562.7,-496.75,-514.59,-377.42,82.89
103,-541.08,-528.85,-423.77,-474.58,-490.49,-430.8,-452.21,-491.37,-542.69,-476.72,-498.16,-498.26,-543.01,-470.77,-465.22,-563.1,-499.11,-509.94,-372.04,125.6
104,-531.72,-517.91,-417.28,-467.28,-482.57,-430.96,-449.03,-487.7,-532.18,-469.47,-491.25,-485.81,-533.78,-464.42,-462.05,-558.18,-491.39,-509.05,-369.11,117.37
105,-528.95,-525.63,-423.84,-477.07,-489.28,-432.42,-459.81,-499.84,-537.27,-477.0,-500.41,-490.46,-536.72,-472.51,-469.45,-562.34,-499.06,-513.59,-376.49,122.29
106,-549.62,-542.04,-436.83,-489.2,-503.11,-439.85,-468.77,-508.27,-554.7,-490.87,-512.06,-504.93,-550.04,-487.19,-484.16,-571.03,-525.33,-530.66,-386.99,168.74
107,-542.32,-541.75,-436.72,-488.05,-504.25,-444.21,-468.01,-505.85,-553.27,-490.87,-510.64,-500.85,-537.53,-486.33,-481.8,-567.6,-494.1,-525.63,-383.03,132.46
108,-534.73,-531.51,-430.27,-481.2,-496.36,-441.75,-463.99,-499.26,-541.61,-482.49,-502.79,-492.38,-533.5,-475.09,-468.71,-552.98,-499.83,-514.77,-374.23,55.44
109,-532.85,-525.63,-423.48,-476.1,-489.94,-438.48,-460.1,-494.47,-533.99,-474.65,-495.3,-486.14,-533.67,-470.24,-463.05,-546.5,-499.61,-510.71,-368.3,113.6
110,-522.83,-514.83,-412.17,-462.44,-480.17,-420.24,-445.7,-482.42,-527.49,-462.37,-481.4,-482.19,-523.11,-457.49,-448.61,-539.26,-480.48,-494.51,-354.97,172.73
111,-515.67,-514.4,-411.85,-460.45,-476.88,-422.8,-442.36,-479.94,-524.39,-461.67,-480.06,-466.46,-522.75,-456.44,-445.95,-541.33,-480.64,-491.71,-352.6,181.63
112,-538.98,-531.8,-427.62,-477.49,-497.39,-440.47,-460.56,-492.11,-542.51,-477.65,-495.7,-494.59,-533.11,-473.05,-459.96,-560.35,-495.11,-502.82,-363.56,193.79
113,-552.92,-544.55,-439.54,-488.28,-509.32,-451.99,-474.2,-503.12,-554.19,-489.43,-505.72,-507.36,-547.29,-482.42,-469.15,-569.37,-508.41,-516.64,-372.74,161.97
114,-548.48,-543.61,-439.11,-487.25,-506.7,-450.97,-473.58,-502.43,-552.83,-488.2,-504.44,-500.83,-547.23,-482.95,-466.91,-562.97,-502.85,-516.18,-372.45,79.59
115,-530.48,-528.8,-425.38,-472.8,-494.32,-442.45,-458.47,-487.87,-540.37,-474.68,-489.33,-485.81,-530.61,-468.29,-454.55,-547.2,-490.53,-500.39,-360.28,37.52
116,-536.61,-531.97,-427.18,-475.07,-496.7,-443.17,-464.02,-492.02,-543.01,-476.13,-491.0,-496.38,-525.83,-466.18,-452.9,-552.09,-475.41,-494.27,-358.98,81.22
117,-542.47,-542.16,-435.03,-482.95,-506.19,-450.7,-472.1,-499.67,-549.27,-483.67,-501.21,-494.81,-536.5,-474.63,-460.84,-556.04,-490.78,-503.01,-366.75,105.94
118,-543.2,-541.08,-438.0,-485.98,-510.27,-456.39,-472.53,-501.17,-549.34,-488.36,-504.92,-490.64,-537.88,-481.43,-467.14,-557.44,-502.18,-511.25,-371.96,93.78
119,-540.5,-539.58,-434.56,-479.92,-508.54,-447.94,-465.54,-494.15,-547.08,-484.64,-499.97,-496.96,-545.37,-480.08,-463.51,-555.06,-500.44,-506.35,-365.98,115.94
120,-534.74,-538.39,-431.84,-477.74,-503.6,-437.75,-464.13,-490.91,-546.7,-481.0,-494.37,-485.9,-535.09,-475.04,-456.86,-544.61,-504.15,-499.58,-359.99,94.78
121,-534.64,-532.51,-428.72,-474.6,-496.89,-443.38,-462.64,-488.6,-543.05,-475.85,-489.38,-476.13,-535.77,-467.04,-450.22,-544.54,-481.23,-493.78,-355.6,27.27
122,-535.28,-529.14,-425.12,-470.49,-494.61,-438.57,-457.22,-482.95,-534.46,-470.17,-486.12,-487.5,-534.92,-462.08,-445.73,-542.26,-479.21,-485.07,-351.58,78.27
123,-543.77,-536.02,-429.91,-475.04,-501.29,-442.63,-459.48,-486.21,-542.92,-475.24,-489.54,-499.83,-531.61,-466.08,-449.56,-546.26,-480.67,-490.87,-357.08,142.78
124,-535.36,-532.52,-429.49,-475.21,-498.43,-445.26,-462.99,-489.68,-538.59,-474.77,-490.66,-494.99,-529.68,-466.35,-452.09,-544.97,-484.34,-496.65,-359.82,82.34
125,-533.1,-530.34,-429.19,-476.11,-497.21,-444.65,-464.11,-491.83,-537.12,-474.47,-491.85,-489.6,-529.0,-467.65,-453.18,-544.69,-486.2,-494.4,-360.54,15.84
126,-535.11,-533.24,-430.93,-478.02,-498.29,-444.88,-462.47,-491.54,-542.32,-477.85,-493.9,-488.28,-531.12,-474.02,-458.14,-548.76,-488.91,-500.47,-364.57,35.82
127,-552.29,-551.79,-450.3,-498.64,-517.1,-461.43,-484.04,-511.51,-560.87,-497.57,-514.37,-498.83,-549.76,-495.53,-481.55,-568.87,-520.36,-524.42,-384.64,10.46
128,-556.83,-555.85,-456.34,-503.03,-524.04,-471.99,-490.89,-517.62,-565.63,-504.77,-520.59,-500.12,-558.89,-500.15,-487.63,-572.51,-522.99,-536.11,-391.36,-40.63
129,-540.55,-536.03,-435.56,-481.18,-504.42,-452.8,-469.57,-494.02,-541.9,-482.25,-496.5,-489.08,-536.47,-476.13,-464.53,-542.73,-503.41,-514.05,-367.04,0.95
130,-523.43,-518.21,-418.3,-462.73,-487.31,-430.16,-451.11,-478.27,-525.88,-463.95,-477.99,-469.59,-521.24,-456.98,-443.91,-526.35,-469.47,-488.86,-349.23,9.86
131,-516.82,-512.56,-417.35,-462.16,-484.63,-432.51,-450.62,-477.77,-520.88,-461.28,-476.01,-460.62,-512.81,-453.51,-441.42,-527.65,-468.49,-482.8,-348.35,-32.31
132,-515.66,-515.66,-416.71,-462.45,-483.5,-430.9,-450.54,-477.61,-522.37,-462.31,-476.61,-466.36,-513.71,-456.82,-444.23,-531.33,-473.61,-489.32,-349.46,-31.31
133,-525.41,-526.48,-424.01,-468.5,-489.38,-433.57,-458.36,-484.71,-534.0,-470.09,-483.66,-478.42,-528.37,-464.22,-451.39,-537.63,-483.48,-497.07,-355.91,30.21
134,-529.42,-531.15,-432.93,-477.68,-496.11,-447.88,-468.46,-495.18,-537.06,-479.26,-493.42,-478.09,-536.59,-471.72,-459.92,-546.45,-490.07,-503.63,-366.46,0.38
135,-537.03,-540.46,-443.26,-488.54,-505.71,-459.44,-478.21,-504.76,-547.84,-489.26,-505.09,-485.82,-543.15,-482.33,-472.23,-554.6,-505.36,-517.15,-379.48,-70.99
136,-533.37,-531.24,-432.99,-478.03,-497.25,-447.1,-465.44,-495.01,-542.52,-478.82,-495.69,-485.82,-535.21,-472.79,-462.24,-543.21,-492.84,-507.79,-369.46,-73.91
137,-521.51,-520.89,-421.1,-465.14,-488.9,-433.98,-454.99,-481.05,-531.73,-465.83,-481.51,-478.09,-521.56,-460.18,-449.7,-531.01,-480.94,-497.79,-355.95,-73.11
138,-511.6,-510.18,-412.17,-456.13,-479.82,-427.45,-448.31,-474.07,-517.85,-453.92,-470.16,-465.23,-513.64,-446.71,-436.61,-519.85,-464.42,-479.77,-346.99,-132.87
139,-534.76,-528.53,-427.82,-472.37,-496.83,-445.13,-464.32,-489.71,-535.12,-471.29,-486.53,-481.15,-531.13,-463.28,-452.46,-534.31,-486.22,-491.6,-363.15,-107.7
140,-548.18,-542.9,-443.12,-485.71,-509.88,-459.49,-475.38,-501.11,-554.83,-486.49,-499.74,-493.76,-546.01,-479.91,-466.93,-548.47,-504.5,-510.94,-375.62,-53.54
141,-533.25,-533.72,-434.88,-475.68,-501.43,-448.58,-467.21,-492.57,-542.09,-475.52,-489.32,-484.55,-534.08,-468.09,-454.93,-542.91,-483.06,-501.85,-366.27,-67.33
142,-535.47,-536.93,-435.45,-473.92,-506.26,-447.08,-465.53,-489.75,-541.65,-474.94,-488.37,-486.51,-528.87,-465.37,-452.17,-541.51,-471.7,-496.57,-365.43,-36.08
143,-540.17,-539.13,-436.56,-476.58,-507.15,-450.67,-466.13,-490.01,-545.41,-476.33,-488.05,-489.88,-524.99,-464.43,-450.75,-539.62,-459.93,-492.84,-362.83,-29.17
144,-519.08,-520.1,-420.4,-460.78,-487.9,-430.08,-447.82,-476.42,-526.62,-460.5,-473.5,-473.88,-507.8,-446.73,-435.1,-518.78,-462.91,-476.78,-350.19,-85.31
145,-514.46,-520.92,-423.59,-464.84,-489.18,-438.0,-453.48,-481.72,-527.77,-465.73,-477.06,-464.2,-506.59,-452.28,-439.96,-518.72,-467.02,-479.04,-354.67,-82.35
146,-529.2,-532.74,-433.86,-476.6,-496.38,-438.85,-463.24,-491.99,-542.15,-477.59,-489.55,-476.76,-533.58,-464.86,-454.49,-532.59,-479.2,-494.5,-365.05,-11.68
147,-527.09,-519.76,-419.48,-463.43,-487.09,-425.49,-448.82,-481.36,-530.1,-464.57,-479.41,-471.14,-529.19,-456.03,-446.43,-530.18,-472.54,-487.62,-355.58,-9.96
148,-518.15,-511.63,-414.36,-460.42,-483.85,-428.84,-448.56,-480.56,-518.11,-459.77,-476.68,-462.51,-516.31,-454.45,-443.76,-523.16,-475.98,-483.89,-354.59,-46.1
149,-528.84,-524.52,-426.03,-471.44,-493.05,-442.65,-460.4,-490.46,-534.06,-472.03,-487.57,-481.09,-522.59,-466.84,-456.64,-529.54,-484.68,-495.1,-363.86,5.47
150,-535.79,-529.48,-431.11,-475.18,-497.69,-441.46,-463.46,-493.52,-539.42,-477.41,-492.7,-480.24,-529.86,-471.04,-463.19,-535.94,-476.17,-503.22,-369.66,36.63
151,-524.18,-522.01,-427.06,-470.55,-490.91,-435.51,-457.08,-488.63,-531.32,-473.54,-489.63,-467.85,-524.72,-464.75,-459.79,-534.33,-481.61,-500.11,-366.75,2.41
152,-524.46,-521.27,-422.25,-465.42,-489.82,-429.87,-450.59,-481.8,-527.37,-470.45,-485.01,-458.46,-518.11,-464.17,-456.93,-529.77,-464.22,-494.83,-361.13,16.16
153,-526.92,-524.78,-426.23,-468.2,-491.26,-437.87,-455.86,-483.51,-531.74,-473.71,-488.18,-480.7,-518.21,-466.6,-459.39,-527.11,-467.57,-495.29,-363.92,35.53
154,-522.83,-518.49,-425.98,-470.57,-489.2,-438.26,-456.15,-486.59,-526.29,-474.16,-490.93,-479.49,-523.31,-467.82,-462.86,-529.47,-489.84,-502.25,-369.01,34.15
155,-527.79,-526.72,-431.65,-477.39,-499.66,-445.14,-463.89,-493.31,-533.82,-482.86,-499.37,-480.0,-537.07,-478.43,-472.16,-540.22,-497.51,-510.66,-376.83,59.73
156,-532.77,-529.58,-427.58,-471.33,-496.04,-437.7,-458.02,-488.12,-536.59,-479.76,-494.45,-485.77,-535.53,-476.89,-469.49,-541.39,-496.68,-510.31,-374.11,115.53
157,-527.92,-520.79,-421.23,-464.61,-489.01,-433.2,-452.16,-483.09,-530.64,-471.57,-486.92,-475.37,-531.43,-470.71,-462.27,-534.24,-483.11,-504.8,-369.33,91.11
158,-518.09,-518.7,-420.67,-464.49,-485.33,-436.84,-453.52,-483.26,-524.07,-467.89,-486.16,-476.18,-523.14,-467.44,-460.45,-538.57,-481.4,-505.31,-368.58,55.04
159,-519.24,-513.02,-414.61,-456.08,-479.91,-427.34,-446.29,-474.89,-522.58,-460.76,-476.81,-463.98,-516.22,-460.38,-451.88,-523.84,-469.42,-494.28,-360.13,111.56
160,-504.83,-497.93,-398.75,-440.87,-463.69,-413.98,-433.47,-461.68,-508.97,-445.27,-460.3,-442.48,-505.35,-442.65,-433.87,-499.25,-452.29,-472.33,-344.97,112.35
161,-492.45,-488.5,-391.96,-434.9,-460.24,-410.89,-428.12,-455.1,-493.65,-437.57,-452.36,-429.43,-488.29,-433.38,-426.52,-496.47,-453.3,-467.63,-338.55,51.64
162,-503.03,-500.23,-404.87,-447.48,-472.59,-424.9,-441.73,-465.26,-502.96,-449.88,-464.15,-452.08,-497.16,-445.91,-438.85,-506.77,-467.24,-483.37,-350.24,92.02
163,-514.92,-512.02,-413.21,-454.85,-481.58,-432.65,-448.26,-471.69,-515.87,-459.15,-473.27,-464.79,-518.53,-454.48,-446.97,-517.51,-476.07,-490.24,-355.94,103.79
164,-519.33,-517.97,-420.36,-461.59,-488.74,-439.09,-453.57,-477.3,-521.03,-467.21,-481.86,-468.84,-522.77,-462.34,-453.78,-527.84,-488.32,-496.45,-361.6,65.53
165,-510.56,-511.77,-413.86,-457.15,-482.52,-431.4,-448.69,-472.84,-514.57,-460.72,-476.45,-466.86,-514.52,-456.41,-448.19,-521.67,-466.85,-489.19,-356.53,66.57
166,-502.51,-501.61,-403.18,-445.91,-471.07,-419.31,-437.92,-461.96,-508.81,-450.33,-465.88,-449.05,-498.36,-444.69,-434.96,-503.89,-454.33,-473.07,-347.31,80.34
167,-505.16,-508.03,-410.56,-451.93,-476.33,-427.71,-442.48,-470.43,-515.76,-457.59,-472.24,-446.56,-505.37,-451.91,-440.74,-506.55,-442.31,-476.05,-354.13,16.45
168,-505.25,-505.41,-412.09,-453.4,-478.23,-423.5,-443.79,-471.27,-515.17,-459.52,-475.41,-442.32,-512.72,-454.26,-445.59,-512.8,-463.36,-485.49,-358.96,-20.45
169,-507.68,-507.14,-410.5,-453.63,-477.69,-426.19,-444.94,-472.61,-517.0,-459.47,-476.8,-459.73,-514.08,-455.17,-447.31,-513.09,-473.61,-487.23,-358.83,55.23
170,-509.66,-509.59,-409.06,-453.34,-476.86,-427.61,-444.22,-472.93,-516.08,-459.26,-476.99,-465.48,-515.06,-455.1,-448.55,-514.28,-480.1,-484.57,-359.38,120.68
171,-512.0,-508.0,-412.72,-455.73,-480.32,-429.34,-446.31,-475.36,-515.7,-464.14,-480.64,-461.44,-515.33,-461.24,-454.82,-523.88,-471.34,-490.19,-364.06,110.56
172,-523.43,-519.6,-427.09,-469.57,-493.67,-442.19,-461.28,-488.14,-528.05,-476.77,-492.97,-473.69,-520.42,-471.18,-467.19,-534.78,-484.06,-505.95,-375.71,145.81
173,-521.49,-518.58,-423.6,-466.4,-489.14,-437.96,-456.8,-484.61,-528.52,-473.75,-488.82,-480.65,-524.53,-469.12,-464.86,-532.6,-481.84,-504.09,-373.43,201.32
174,-511.44,-518.44,-422.94,-463.47,-484.93,-433.31,-452.47,-480.84,-523.25,-471.63,-485.42,-461.41,-523.12,-467.75,-460.59,-521.76,-462.57,-501.05,-369.3,138.56
175,-503.82,-508.54,-413.98,-454.8,-477.2,-427.08,-446.44,-472.58,-516.58,-461.47,-475.24,-427.67,-516.17,-457.97,-448.6,-504.9,-457.42,-485.25,-357.6,87.33
176,-493.1,-500.28,-403.78,-442.97,-468.38,-419.03,-435.55,-460.72,-508.25,-452.77,-463.63,-443.96,-499.0,-447.05,-438.07,-485.35,-456.82,-470.83,-343.81,198.03
177,-497.42,-500.58,-405.24,-443.96,-469.59,-419.94,-437.07,-462.86,-509.32,-452.77,-465.2,-444.82,-491.5,-448.38,-438.81,-493.34,-455.34,-466.14,-344.67,214.95
178,-500.77,-498.85,-405.36,-445.4,-467.32,-420.67,-436.49,-464.31,-504.19,-450.61,-466.57,-444.34,-503.64,-447.39,-441.28,-507.75,-453.91,-473.95,-347.73,170.54
179,-498.59,-495.24,-399.24,-441.03,-465.25,-414.9,-431.79,-461.99,-498.28,-447.61,-464.99,-447.83,-501.17,-444.47,-439.31,-506.28,-462.55,-473.16,-345.43,172.57
180,-503.3,-502.31,-407.21,-450.28,-472.5,-423.17,-442.33,-472.62,-508.26,-455.27,-472.1,-463.08,-504.38,-450.89,-445.82,-511.47,-463.42,-477.25,-352.71,154.87
181,-499.09,-501.44,-409.63,-451.72,-474.48,-425.56,-443.41,-473.92,-506.62,-457.47,-474.72,-451.97,-505.59,-452.9,-449.0,-506.87,-451.96,-485.57,-357.65,114.4
182,-509.38,-507.47,-416.69,-459.49,-482.06,-433.64,-448.85,-479.46,-514.7,-465.01,-482.53,-445.78,-514.65,-463.99,-457.35,-513.47,-467.4,-490.86,-361.33,119.79
183,-517.94,-515.79,-422.88,-465.02,-488.86,-434.99,-453.16,-483.21,-526.86,-473.52,-488.68,-449.39,-523.79,-472.91,-462.85,-520.13,-481.12,-494.69,-364.09,155.9
184,-495.47,-497.18,-405.11,-447.8,-470.17,-419.24,-439.29,-468.69,-506.72,-454.99,-471.03,-442.75,-509.53,-454.13,-444.13,-503.32,-456.7,-478.13,-349.36,97.74
185,-487.44,-489.25,-400.7,-445.06,-462.99,-420.96,-437.31,-466.78,-498.94,-449.45,-467.68,-449.3,-499.84,-448.79,-441.2,-505.14,-462.08,-477.58,-347.51,118.75
186,-503.59,-500.87,-410.0,-453.12,-472.19,-424.89,-448.29,-476.75,-510.36,-459.58,-475.58,-462.04,-509.1,-459.66,-451.35,-518.03,-477.31,-486.13,-356.2,180.68
187,-495.95,-492.63,-401.08,-446.98,-465.2,-419.7,-440.44,-472.22,-501.51,-453.38,-470.12,-446.16,-497.33,-453.52,-448.31,-508.64,-468.28,-484.66,-352.92,137.82
188,-477.84,-480.49,-392.01,-440.19,-455.63,-409.61,-432.21,-464.43,-492.37,-445.66,-463.57,-415.35,-498.25,-446.18,-440.13,-492.61,-461.02,-474.67,-346.26,40.85
189,-487.52,-486.14,-395.18,-443.7,-458.86,-408.85,-432.12,-465.99,-497.76,-451.09,-467.71,-442.55,-492.96,-451.11,-445.18,-498.61,-448.03,-479.86,-350.3,89.17
190,-512.95,-508.28,-417.42,-464.07,-481.07,-425.52,-448.14,-483.21,-519.99,-472.43,-488.1,-455.07,-526.37,-470.42,-466.08,-523.62,-481.37,-504.12,-367.89,160.48
191,-502.3,-505.76,-414.49,-459.88,-477.28,-419.07,-442.18,-476.05,-519.33,-467.99,-484.64,-435.67,-524.04,-470.0,-462.23,-511.37,-480.54,-497.46,-364.48,73.22
192,-483.05,-486.53,-396.46,-443.67,-458.51,-406.04,-428.23,-461.22,-499.97,-450.97,-467.83,-433.9,-508.35,-450.38,-442.3,-495.85,-455.51,-480.22,-346.21,28.11
193,-485.71,-482.64,-392.94,-439.75,-454.26,-406.46,-430.96,-460.47,-491.81,-443.34,-461.32,-448.19,-490.34,-438.1,-432.06,-494.86,-449.81,-469.37,-340.68,68.03
194,-496.67,-491.7,-403.67,-450.07,-465.46,-419.55,-441.73,-469.6,-498.97,-453.38,-470.85,-459.52,-495.11,-446.92,-441.17,-506.72,-467.11,-475.94,-348.52,72.31
195,-498.77,-501.83,-412.0,-457.62,-472.91,-424.28,-446.34,-475.52,-508.96,-462.41,-478.67,-457.45,-505.25,-455.74,-449.82,-516.13,-466.24,-484.79,-357.33,72.52
196,-503.02,-500.55,-409.54,-453.08,-470.24,-424.51,-440.49,-468.15,-510.46,-458.82,-472.86,-454.08,-505.82,-451.1,-445.12,-508.19,-448.2,-481.51,-351.24,90.97
197,-490.09,-488.41,-397.99,-441.89,-457.6,-411.33,-431.9,-460.5,-499.46,-449.33,-461.72,-413.2,-495.96,-440.32,-431.92,-486.6,-442.12,-461.66,-340.23,66.73
198,-492.08,-497.17,-405.3,-447.54,-468.4,-409.67,-435.82,-464.62,-508.98,-458.62,-468.6,-425.37,-511.85,-450.15,-440.38,-499.37,-449.9,-469.8,-347.36,68.74
199,-518.36,-517.19,-422.44,-462.47,-488.19,-425.52,-448.06,-474.91,-528.94,-476.27,-483.24,-466.86,-528.74,-467.73,-458.16,-520.39,-485.51,-491.26,-359.78,170.27
200,-530.1,-526.52,-434.08,-471.78,-499.56,-438.16,-457.22,-483.69,-537.98,-484.65,-494.53,-478.39,-524.21,-477.22,-468.28,-529.73,-488.26,-499.0,-368.02,202.79
201,-518.07,-519.28,-429.42,-468.55,-494.85,-437.54,-457.72,-482.2,-527.33,-475.58,-489.15,-471.21,-525.5,-465.51,-459.79,-517.17,-474.38,-495.21,-363.72,119.38
202,-490.19,-493.97,-405.71,-445.9,-467.18,-415.24,-435.12,-458.37,-498.61,-451.49,-466.27,-438.35,-502.08,-444.28,-438.03,-499.83,-454.47,-475.23,-342.21,123.21
203,-482.55,-481.84,-393.0,-434.07,-455.12,-404.37,-423.14,-447.97,-492.93,-439.58,-453.66,-419.86,-481.99,-430.37,-424.15,-485.03,-432.37,-456.5,-328.58,174.28
204,-486.32,-486.28,-398.43,-442.17,-459.12,-408.0,-430.47,-456.26,-497.65,-447.19,-460.05,-430.63,-495.78,-438.25,-431.89,-488.7,-447.52,-462.05,-336.97,103.45
205,-507.78,-511.89,-424.29,-470.35,-484.93,-437.15,-457.93,-484.36,-522.84,-475.76,-487.8,-455.85,-525.95,-468.97,-462.65,-518.68,-477.74,-492.81,-363.91,30.06
206,-513.6,-512.66,-423.64,-468.11,-487.77,-434.65,-456.75,-480.81,-524.28,-474.33,-485.99,-461.21,-523.26,-467.89,-460.98,-519.83,-478.95,-496.83,-362.21,7.53
207,-492.26,-490.98,-402.86,-445.73,-465.03,-410.39,-435.56,-459.82,-500.46,-452.18,-463.12,-446.65,-492.13,-444.99,-437.83,-500.25,-450.23,-473.26,-340.97,-15.22
208,-482.02,-483.1,-394.58,-436.71,-456.38,-406.54,-424.89,-452.69,-488.84,-444.44,-454.93,-431.75,-487.81,-435.83,-429.29,-486.43,-446.8,-457.44,-336.08,60.08
209,-484.68,-485.83,-397.09,-437.15,-455.91,-401.37,-423.29,-453.26,-497.52,-447.22,-457.64,-432.01,-497.66,-439.73,-432.56,-491.0,-446.46,-461.34,-337.67,253.14
210,-497.42,-495.7,-404.15,-444.04,-464.98,-408.92,-431.8,-459.58,-508.61,-455.36,-463.98,-445.1,-501.21,-446.88,-439.16,-502.16,-446.64,-465.26,-342.88,371.79
211,-484.65,-486.06,-396.49,-436.62,-456.71,-402.45,-425.72,-452.74,-497.3,-447.89,-457.1,-425.88,-497.86,-442.1,-434.68,-493.02,-450.33,-461.27,-339.42,299.88
212,-488.07,-492.47,-399.88,-440.37,-461.93,-409.46,-427.25,-456.26,-508.01,-453.5,-462.2,-424.26,-515.7,-449.5,-441.59,-505.31,-456.57,-474.94,-344.05,229.1
213,-500.68,-496.01,-404.69,-444.86,-467.8,-410.1,-432.98,-461.25,-513.2,-458.27,-467.78,-445.68,-517.79,-455.72,-448.16,-507.87,-456.34,-480.73,-353.09,236.0
214,-500.7,-498.98,-406.83,-448.03,-473.1,-411.03,-435.96,-465.92,-516.15,-459.64,-471.31,-461.29,-518.02,-458.02,-453.15,-509.42,-473.65,-490.48,-358.12,216.97
215,-501.05,-499.22,-405.06,-447.13,-474.75,-422.66,-439.15,-466.65,-513.12,-459.21,-470.84,-445.12,-513.35,-457.0,-451.34,-509.88,-472.28,-490.72,-358.31,228.02
216,-501.93,-500.38,-404.84,-443.99,-474.11,-419.4,-437.43,-463.91,-514.18,-458.54,-467.38,-453.36,-504.95,-455.29,-445.82,-513.27,-467.49,-479.29,-351.4,231.11
217,-497.54,-492.23,-394.02,-432.67,-466.74,-405.29,-423.65,-451.75,-505.09,-448.83,-456.74,-451.85,-508.41,-443.57,-435.35,-503.44,-449.93,-470.36,-341.5,157.69
218,-484.44,-476.62,-384.07,-425.09,-453.43,-396.72,-416.41,-446.62,-488.93,-437.47,-448.83,-428.2,-495.6,-431.03,-425.15,-488.7,-439.61,-458.33,-334.7,98.45
219,-491.0,-486.66,-393.7,-435.19,-461.27,-406.89,-426.77,-456.75,-497.6,-447.88,-460.46,-440.09,-492.68,-442.29,-434.58,-494.7,-444.87,-462.33,-342.02,160.58
220,-500.41,-493.97,-400.84,-439.58,-469.78,-411.09,-429.19,-459.74,-507.68,-455.39,-466.62,-450.62,-507.22,-447.8,-442.57,-502.58,-460.52,-473.55,-347.81,152.77
221,-495.92,-491.65,-398.96,-438.47,-466.56,-409.04,-429.13,-460.41,-504.82,-454.08,-466.42,-438.95,-494.34,-449.18,-445.1,-504.71,-454.44,-475.42,-349.49,82.13
222,-493.13,-490.5,-398.19,-438.85,-467.47,-413.54,-431.29,-462.91,-508.69,-454.23,-465.32,-430.14,-499.99,-451.22,-444.09,-498.29,-455.71,-476.27,-349.81,103.28
223,-508.97,-502.15,-406.95,-446.02,-478.9,-418.79,-438.23,-469.31,-520.72,-462.54,-472.35,-445.88,-527.1,-459.07,-453.05,-509.13,-479.36,-489.86,-357.85,154.25
224,-503.08,-495.88,-397.61,-436.71,-472.14,-408.28,-426.1,-459.76,-509.82,-453.22,-463.03,-455.06,-510.32,-448.48,-444.5,-509.31,-471.1,-481.17,-348.87,155.1
225,-489.11,-485.68,-388.81,-429.9,-462.05,-399.53,-420.58,-454.05,-499.24,-445.65,-457.39,-448.58,-501.58,-441.22,-436.99,-504.44,-441.38,-471.59,-344.86,119.14
226,-499.84,-491.49,-395.65,-437.68,-466.92,-409.54,-431.55,-462.25,-508.15,-453.04,-464.27,-442.47,-510.6,-450.46,-443.56,-505.45,-455.01,-478.73,-352.8,123.25
227,-494.18,-485.05,-388.62,-428.91,-463.8,-400.47,-421.1,-452.38,-500.31,-444.81,-455.61,-443.8,-507.2,-443.57,-437.0,-499.08,-458.56,-474.81,-346.16,102.83
228,-483.09,-476.43,-381.42,-421.44,-457.7,-401.34,-413.38,-446.89,-492.4,-440.49,-450.78,-433.66,-493.18,-438.49,-432.6,-492.94,-446.25,-468.22,-341.98,123.72
229,-490.45,-480.73,-385.75,-424.58,-459.51,-397.97,-416.08,-449.69,-498.42,-444.47,-453.19,-436.05,-492.08,-440.52,-435.88,-496.16,-455.15,-473.08,-344.61,200.58
230,-494.64,-485.61,-388.95,-428.04,-462.55,-398.82,-420.51,-453.95,-502.47,-448.77,-458.26,-443.01,-501.59,-447.62,-442.85,-498.44,-459.88,-476.29,-348.35,235.54
231,-481.8,-473.63,-380.47,-420.47,-453.3,-397.2,-413.45,-447.73,-489.1,-440.11,-449.6,-425.48,-491.42,-437.59,-434.45,-487.35,-453.84,-465.21,-341.79,166.34
232,-470.07,-463.53,-374.22,-414.9,-442.17,-388.3,-407.28,-442.36,-479.93,-430.81,-443.21,-418.42,-478.99,-429.88,-427.17,-479.91,-434.83,-459.56,-338.35,106.51
233,-481.27,-470.38,-377.87,-417.87,-446.95,-395.42,-411.55,-447.03,-484.93,-433.29,-445.35,-423.97,-482.74,-430.85,-426.26,-480.06,-420.63,-456.9,-338.12,132.08
234,-475.0,-466.81,-373.76,-412.71,-446.77,-387.79,-406.14,-443.16,-479.7,-427.37,-440.67,-413.94,-483.44,-421.39,-420.6,-468.71,-436.69,-458.73,-334.73,107.88
235,-466.44,-457.49,-366.29,-407.86,-440.31,-382.55,-400.38,-438.6,-471.76,-420.17,-434.45,-408.17,-469.88,-413.57,-414.99,-466.76,-433.15,-451.12,-329.64,80.69
236,-484.07,-475.7,-380.85,-421.12,-457.41,-401.21,-414.69,-452.13,-489.09,-435.2,-449.15,-437.26,-488.93,-429.05,-430.45,-493.81,-453.58,-465.9,-342.61,166.06
237,-501.79,-491.63,-393.15,-432.65,-470.63,-409.97,-425.0,-460.77,-507.19,-450.98,-461.76,-455.84,-506.59,-446.65,-445.7,-509.37,-463.9,-487.62,-355.46,199.95
238,-484.2,-472.6,-373.25,-412.69,-450.44,-390.89,-405.41,-442.48,-486.96,-432.8,-443.08,-433.78,-484.07,-430.29,-428.42,-492.71,-444.98,-472.2,-338.53,113.16
239,-480.38,-473.64,-372.24,-410.52,-452.13,-390.06,-404.13,-439.33,-488.65,-432.33,-440.77,-430.42,-488.11,-426.61,-423.19,-485.35,-436.78,-458.45,-331.32,99.86
240,-489.62,-479.16,-380.33,-420.13,-458.94,-402.56,-418.35,-450.45,-492.54,-438.74,-447.42,-429.48,-495.46,-434.65,-428.66,-482.21,-446.76,-456.08,-336.48,122.44
241,-477.13,-468.63,-371.29,-409.93,-448.92,-395.95,-405.8,-439.81,-484.19,-428.23,-437.52,-404.05,-489.88,-423.52,-421.29,-471.99,-431.94,-456.94,-332.1,75.65
242,-479.24,-466.41,-367.63,-407.74,-448.33,-387.38,-400.03,-436.19,-478.21,-424.12,-435.04,-425.63,-480.98,-418.18,-418.38,-472.29,-433.67,-458.85,-331.41,76.84
243,-501.11,-487.18,-386.46,-427.74,-469.83,-407.37,-422.25,-457.78,-498.11,-442.91,-454.57,-461.94,-494.62,-434.83,-435.08,-497.14,-453.8,-471.47,-348.25,54.46
244,-480.81,-469.8,-374.77,-415.42,-452.3,-392.12,-408.65,-446.84,-484.28,-429.67,-443.31,-424.48,-480.24,-422.52,-423.35,-483.03,-435.27,-461.74,-339.85,1.92
245,-459.23,-452.86,-358.01,-401.59,-432.37,-377.56,-395.05,-434.45,-467.87,-412.61,-428.49,-405.28,-468.27,-405.46,-406.9,-463.56,-422.6,-444.74,-326.45,-21.01
246,-474.07,-464.33,-365.9,-409.12,-443.83,-384.47,-401.67,-438.87,-477.77,-422.65,-435.94,-419.04,-470.73,-414.72,-414.69,-474.53,-425.97,-450.87,-332.28,2.0
247,-481.1,-467.58,-369.26,-412.56,-449.61,-390.31,-406.41,-442.08,-481.14,-427.76,-439.3,-429.47,-489.73,-423.89,-422.79,-485.93,-439.24,-460.47,-337.58,-9.16
248,-478.43,-469.71,-372.52,-415.03,-453.24,-394.24,-409.95,-445.18,-483.67,-430.48,-443.54,-425.65,-490.27,-425.88,-427.47,-480.12,-440.53,-462.46,-341.27,-49.29
249,-493.35,-484.68,-384.92,-424.23,-464.63,-400.07,-414.69,-450.09,-498.57,-443.98,-454.07,-440.52,-494.09,-438.8,-439.48,-494.13,-440.51,-474.41,-346.93,18.42
250,-482.85,-470.45,-368.48,-406.27,-447.37,-384.5,-395.97,-430.94,-485.31,-426.04,-436.24,-425.97,-475.71,-419.64,-420.21,-476.85,-430.17,-454.28,-329.29,46.48
251,-474.36,-463.41,-365.4,-404.92,-443.93,-380.17,-397.44,-430.16,-477.03,-423.34,-433.44,-422.59,-471.65,-417.02,-415.25,-466.07,-422.55,-439.89,-323.91,-31.01
252,-475.43,-464.47,-366.97,-406.14,-446.72,-381.86,-398.84,-431.81,-477.35,-423.88,-434.71,-423.71,-477.64,-419.13,-418.05,-472.44,-429.19,-447.2,-326.87,-53.31
253,-480.3,-466.49,-370.54,-410.8,-450.53,-385.31,-405.13,-437.24,-482.99,-427.53,-438.66,-423.93,-484.3,-422.58,-423.51,-473.7,-427.16,-449.26,-332.04,-34.1
254,-485.27,-476.92,-379.06,-418.25,-459.85,-397.48,-412.63,-443.1,-491.57,-435.1,-445.25,-417.73,-490.88,-429.05,-430.13,-476.02,-442.0,-461.27,-338.7,-71.74
255,-480.16,-474.12,-376.58,-413.37,-453.51,-391.77,-406.64,-439.41,-486.57,-431.82,-441.33,-414.58,-482.61,-425.21,-426.7,-474.18,-431.83,-463.23,-335.19,-117.35
256,-476.89,-470.41,-369.64,-405.8,-451.11,-386.01,-400.21,-431.66,-480.73,-426.27,-434.71,-423.51,-474.74,-418.74,-420.16,-468.37,-428.02,-452.28,-327.32,-89.65
257,-476.49,-473.18,-372.9,-410.03,-452.32,-393.3,-407.46,-436.55,-482.43,-428.02,-436.54,-433.02,-482.4,-421.89,-424.29,-470.04,-432.81,-455.46,-330.99,-132.3
258,-493.57,-487.84,-389.42,-428.06,-470.28,-412.59,-423.36,-452.36,-499.41,-446.25,-454.59,-445.16,-493.7,-440.56,-444.74,-495.2,-451.83,-477.45,-350.9,-192.83
259,-496.34,-483.14,-385.01,-422.9,-464.69,-405.93,-417.14,-445.48,-498.32,-440.11,-449.63,-438.78,-494.68,-436.95,-440.15,-497.26,-447.77,-478.55,-348.06,-120.47
260,-499.4,-481.46,-383.03,-420.81,-464.93,-403.27,-415.65,-443.25,-495.4,-437.89,-447.82,-445.6,-494.0,-434.88,-436.98,-493.02,-451.76,-471.19,-344.71,-47.2
261,-492.4,-477.71,-379.49,-416.44,-463.07,-398.8,-410.85,-438.01,-488.18,-433.02,-442.68,-434.74,-489.83,-427.7,-430.05,-484.96,-436.83,-465.09,-340.92,-90.85
262,-487.96,-473.0,-374.37,-411.72,-457.25,-391.54,-404.49,-433.89,-480.85,-428.04,-436.9,-432.88,-475.48,-421.68,-424.91,-474.09,-436.73,-461.15,-335.91,-85.59
263,-494.65,-480.94,-380.5,-416.21,-463.03,-396.45,-407.78,-437.06,-490.68,-434.37,-440.85,-435.02,-478.83,-426.89,-427.19,-481.57,-441.75,-460.83,-337.29,-28.01
264,-485.2,-472.34,-374.15,-409.81,-454.91,-388.41,-400.7,-432.79,-484.02,-428.75,-436.28,-416.28,-484.32,-418.65,-421.2,-474.99,-428.73,-456.14,-333.46,-44.5
265,-480.21,-471.82,-374.85,-413.03,-454.41,-393.04,-404.12,-436.71,-482.34,-431.54,-439.44,-422.0,-487.81,-423.41,-425.94,-477.11,-434.75,-458.35,-336.9,-52.0
266,-478.64,-468.38,-371.44,-409.11,-448.78,-387.63,-400.75,-432.86,-481.94,-426.55,-434.16,-417.13,-474.32,-417.81,-419.85,-468.57,-421.84,-449.39,-332.54,-30.54
267,-474.0,-467.17,-371.11,-412.02,-446.22,-389.49,-404.86,-435.76,-481.59,-425.36,-434.4,-412.98,-472.65,-414.34,-417.71,-455.93,-416.71,-442.2,-330.03,-0.43
268,-472.54,-468.76,-376.43,-419.17,-450.38,-396.02,-410.65,-440.81,-480.69,-429.91,-441.67,-421.96,-478.09,-416.93,-421.61,-463.16,-422.78,-447.58,-334.45,-1.38
269,-485.79,-478.03,-386.14,-427.86,-458.84,-403.42,-414.74,-445.16,-488.35,-441.21,-451.66,-435.79,-479.81,-426.95,-432.88,-481.09,-438.13,-458.28,-342.55,11.37
270,-486.64,-475.39,-383.72,-425.93,-453.61,-396.61,-411.01,-443.95,-485.81,-438.48,-449.86,-447.08,-481.17,-429.18,-434.99,-484.23,-437.29,-465.08,-343.0,-2.17
271,-467.32,-461.18,-372.08,-416.57,-438.77,-389.28,-403.11,-436.69,-473.47,-428.26,-440.69,-416.68,-474.33,-419.05,-425.63,-468.18,-428.92,-456.52,-334.67,-69.62
272,-465.13,-455.7,-365.81,-410.51,-432.51,-375.44,-397.27,-430.78,-470.53,-422.83,-435.2,-403.31,-470.78,-415.4,-420.71,-464.1,-424.19,-449.16,-330.97,-56.68
273,-476.16,-464.27,-370.02,-413.44,-438.16,-379.85,-399.4,-434.2,-481.05,-430.17,-440.61,-429.19,-477.55,-423.77,-429.35,-477.46,-436.19,-459.53,-338.7,-18.02
274,-483.5,-471.34,-378.06,-421.0,-441.81,-383.84,-404.83,-439.97,-491.94,-439.54,-448.0,-433.43,-492.06,-433.67,-439.64,-489.39,-448.41,-471.42,-347.08,-62.92
275,-476.46,-463.13,-370.75,-415.15,-427.58,-370.48,-394.54,-433.58,-487.31,-435.35,-443.18,-432.26,-488.92,-432.69,-436.5,-485.29,-437.21,-465.6,-341.84,-55.36
276,-492.69,-477.9,-386.46,-431.17,-433.73,-382.13,-408.27,-449.75,-510.47,-455.33,-461.09,-459.16,-509.05,-451.86,-453.73,-505.79,-455.17,-483.01,-356.91,-21.97
277,-493.16,-483.17,-394.65,-438.84,-429.78,-377.74,-411.54,-456.63,-525.21,-464.7,-469.05,-446.6,-528.3,-460.04,-462.35,-503.32,-475.41,-489.92,-361.08,-32.57
278,-469.96,-461.81,-375.5,-419.43,-404.33,-349.96,-389.85,-440.08,-505.09,-445.61,-451.13,-428.05,-497.54,-439.87,-440.56,-481.83,-443.1,-465.62,-342.11,-55.69
279,-472.1,-460.53,-371.13,-416.42,-399.8,-347.88,-387.05,-438.97,-501.8,-443.38,-447.87,-439.18,-496.17,-434.38,-435.71,-484.37,-444.83,-458.26,-336.67,-40.07
280,-502.01,-489.13,-400.19,-446.34,-426.61,-380.79,-419.27,-464.56,-528.37,-470.06,-474.19,-475.59,-521.73,-460.66,-458.02,-507.81,-460.86,-477.68,-357.96,-10.37
281,-505.89,-492.13,-404.15,-447.23,-432.58,-380.23,-418.73,-461.25,-528.99,-471.6,-475.07,-476.67,-520.9,-461.53,-460.27,-514.95,-469.46,-485.63,-358.14,-61.53
282,-492.56,-487.68,-397.59,-438.9,-428.71,-374.9,-411.12,-453.39,-521.49,-466.77,-467.65,-461.97,-517.84,-459.4,-456.61,-512.04,-470.51,-483.7,-352.62,-108.52
283,-515.36,-504.79,-415.18,-454.48,-445.32,-398.01,-430.82,-468.45,-541.51,-480.68,-479.42,-479.83,-530.44,-471.64,-467.87,-523.48,-471.98,-494.89,-365.35,-93.03
284,-510.79,-505.75,-413.06,-448.72,-444.52,-392.4,-426.01,-461.26,-540.88,-478.41,-474.06,-465.26,-527.43,-465.04,-464.29,-509.33,-466.57,-496.42,-362.74,-125.3
285,-480.58,-477.69,-384.27,-417.68,-413.51,-360.21,-394.67,-430.58,-513.22,-448.07,-442.58,-426.7,-498.41,-432.81,-434.84,-474.92,-434.12,-464.33,-335.66,-184.31
286,-454.7,-445.26,-353.29,-389.64,-383.02,-331.98,-370.34,-406.27,-483.31,-418.11,-412.55,-410.22,-468.88,-401.82,-403.47,-449.95,-404.31,-430.1,-312.46,-176.23
287,-450.09,-438.66,-349.82,-389.61,-379.78,-335.8,-373.26,-409.43,-478.65,-417.43,-415.01,-413.56,-462.05,-405.66,-408.43,-453.69,-404.82,-433.96,-318.13,-135.56
288,-453.12,-443.85,-353.32,-395.29,-390.12,-345.31,-379.54,-417.76,-478.02,-421.99,-423.41,-420.83,-466.3,-412.1,-415.78,-463.09,-426.69,-442.58,-326.62,-129.45
289,-455.3,-440.45,-347.57,-391.91,-390.64,-338.68,-372.96,-413.52,-474.76,-418.79,-422.88,-418.69,-466.76,-413.55,-417.29,-465.4,-429.08,-447.26,-327.42,-63.67
290,-467.05,-449.31,-354.92,-399.64,-407.57,-349.66,-380.65,-425.48,-485.02,-426.99,-432.34,-433.59,-484.03,-425.21,-431.23,-481.37,-446.8,-460.11,-339.08,-62.89
291,-480.17,-463.5,-368.37,-414.42,-430.35,-367.05,-395.93,-440.03,-497.44,-442.35,-448.69,-446.92,-498.19,-445.42,-450.62,-496.26,-454.48,-482.56,-355.78,-118.44
292,-469.68,-443.08,-353.68,-401.73,-415.5,-359.52,-386.59,-428.83,-477.84,-426.49,-435.33,-429.38,-484.79,-431.69,-436.89,-484.02,-442.18,-473.98,-346.13,-122.42
293,-453.17,-421.75,-331.96,-380.66,-400.76,-341.33,-367.82,-411.59,-457.14,-404.05,-413.95,-416.3,-477.35,-411.72,-416.75,-465.02,-430.08,-451.22,-326.82,-118.34
294,-428.48,-404.2,-316.27,-367.74,-386.74,-326.24,-353.61,-400.65,-439.36,-387.68,-399.19,-391.21,-456.06,-394.89,-402.16,-442.34,-399.14,-430.29,-314.67,-165.54
295,-432.11,-413.84,-325.85,-377.06,-396.07,-340.86,-365.08,-410.02,-445.6,-394.97,-407.48,-395.4,-455.16,-397.73,-407.95,-450.99,-414.47,-438.35,-321.65,-176.59
296,-445.2,-425.4,-335.42,-385.34,-408.23,-352.02,-374.82,-418.97,-453.55,-401.41,-414.44,-406.46,-462.59,-406.67,-414.59,-461.43,-416.36,-441.22,-325.17,-174.45
297,-453.84,-431.99,-340.86,-390.54,-416.97,-354.55,-377.51,-421.74,-460.48,-406.51,-419.56,-419.82,-471.32,-412.58,-420.58,-471.73,-428.75,-451.71,-332.09,-184.66
298,-453.09,-429.63,-338.97,-386.52,-414.51,-349.77,-370.47,-417.4,-456.72,-402.21,-416.31,-424.24,-470.92,-407.6,-417.78,-471.73,-434.51,-450.3,-327.94,-215.19
299,-458.87,-430.22,-338.51,-384.98,-413.19,-350.3,-368.96,-415.51,-455.29,-401.23,-415.25,-420.54,-467.43,-405.96,-415.65,-475.65,-427.0,-448.15,-324.05,-194.2
300,-468.19,-437.86,-345.3,-390.71,-424.15,-361.0,-376.99,-420.68,-463.69,-407.77,-418.97,-430.39,-471.46,-411.05,-418.96,-479.92,-428.76,-444.32,-327.03,-211.89
301,-466.57,-440.59,-347.83,-393.85,-425.36,-365.15,-382.03,-424.61,-463.97,-408.7,-419.81,-429.53,-469.98,-409.91,-419.0,-477.23,-425.1,-446.08,-329.03,-255.37
302,-464.66,-439.4,-344.79,-389.8,-421.85,-365.0,-379.63,-421.11,-462.29,-406.9,-417.28,-415.55,-470.54,-405.24,-418.32,-472.58,-426.86,-454.59,-330.9,-212.5
303,-482.26,-453.76,-357.1,-399.0,-435.86,-371.77,-385.08,-427.23,-478.3,-418.25,-426.85,-434.65,-483.7,-417.88,-428.31,-484.41,-439.33,-460.06,-336.25,-156.44
304,-493.02,-468.34,-371.45,-411.29,-449.39,-380.71,-396.49,-436.71,-490.86,-432.04,-439.33,-452.0,-490.61,-430.12,-439.33,-497.8,-452.77,-473.05,-346.12,-123.85
305,-478.71,-455.37,-358.6,-396.88,-435.79,-367.95,-383.28,-422.69,-475.39,-418.91,-425.61,-431.85,-472.84,-415.92,-424.59,-482.07,-439.5,-458.72,-332.8,-141.96
306,-470.59,-442.58,-345.25,-383.37,-422.73,-352.99,-370.01,-411.25,-465.19,-404.22,-409.91,-424.76,-458.55,-400.26,-408.52,-468.47,-413.02,-438.21,-318.87,-131.24
307,-464.1,-434.72,-338.77,-377.53,-416.34,-349.06,-366.32,-408.14,-460.23,-397.61,-402.65,-413.45,-459.56,-390.16,-400.55,-458.05,-404.41,-429.9,-314.66,-129.55
308,-471.38,-446.31,-351.19,-392.6,-430.62,-369.08,-383.8,-422.74,-470.36,-411.05,-417.36,-421.84,-465.71,-404.72,-415.11,-470.14,-421.34,-444.17,-327.38,-168.68
309,-495.45,-467.56,-372.54,-412.8,-452.75,-388.31,-404.21,-440.78,-491.06,-430.26,-436.88,-444.97,-483.84,-423.07,-432.65,-489.94,-442.74,-461.28,-343.39,-156.28
310,-507.61,-479.62,-384.05,-423.72,-461.85,-400.41,-414.87,-448.67,-505.96,-442.8,-448.01,-459.39,-496.01,-435.9,-442.94,-497.51,-451.98,-472.15,-350.88,-126.87
311,-484.0,-460.24,-366.38,-405.39,-440.98,-384.07,-397.78,-431.54,-487.97,-425.07,-429.17,-431.11,-474.7,-416.43,-424.28,-478.77,-437.76,-457.48,-332.34,-166.59
312,-469.77,-443.87,-348.2,-388.59,-422.19,-363.13,-380.43,-415.0,-473.1,-407.22,-412.64,-410.19,-466.01,-397.37,-405.68,-460.53,-415.4,-435.55,-316.06,-140.42
313,-473.83,-442.88,-345.22,-387.28,-418.1,-353.92,-373.23,-412.29,-474.41,-407.34,-413.27,-428.58,-470.51,-398.98,-407.33,-463.9,-407.73,-432.64,-316.84,-85.16
314,-465.85,-434.72,-336.85,-378.49,-409.2,-339.21,-359.05,-402.6,-467.76,-401.18,-406.19,-426.47,-462.87,-394.3,-402.99,-463.33,-412.26,-432.23,-312.33,-124.28
315,-468.79,-444.4,-346.2,-388.17,-414.97,-347.21,-369.58,-411.74,-479.04,-413.2,-416.37,-427.05,-467.64,-407.72,-413.23,-471.02,-427.01,-440.12,-320.6,-189.45
316,-481.18,-456.47,-359.9,-402.05,-424.7,-360.57,-385.14,-425.72,-495.91,-428.31,-429.83,-445.22,-487.66,-422.74,-426.5,-478.03,-431.85,-451.95,-331.22,-159.78
317,-490.7,-462.08,-368.28,-411.54,-427.97,-370.4,-394.47,-436.35,-504.07,-435.55,-438.5,-451.55,-503.67,-430.84,-434.22,-484.88,-444.11,-461.89,-338.83,-157.77
318,-493.54,-468.27,-376.11,-422.33,-431.2,-377.14,-406.76,-448.24,-509.77,-443.31,-447.28,-453.32,-501.02,-438.58,-441.93,-495.4,-442.63,-464.55,-345.18,-183.39
319,-473.32,-447.94,-357.4,-404.57,-410.44,-357.53,-389.26,-432.92,-490.35,-422.74,-429.75,-428.31,-476.05,-416.07,-420.77,-475.77,-422.47,-443.23,-329.67,-151.17
320,-462.13,-431.21,-340.44,-389.46,-398.45,-342.73,-373.09,-419.11,-474.44,-406.99,-414.06,-427.6,-461.16,-401.78,-407.65,-462.69,-416.46,-434.04,-319.77,-130.57
321,-452.97,-427.47,-340.31,-391.38,-398.09,-348.05,-375.9,-422.41,-467.34,-405.13,-414.6,-407.12,-464.66,-400.15,-409.4,-458.16,-409.12,-433.67,-322.07,-203.46
322,-469.47,-445.27,-359.38,-410.43,-416.32,-368.87,-394.54,-438.41,-483.39,-423.77,-434.62,-434.96,-481.89,-418.57,-427.51,-477.1,-428.48,-453.09,-339.49,-203.32
323,-474.06,-446.12,-359.62,-408.01,-411.75,-359.82,-390.13,-433.91,-487.51,-426.35,-434.92,-446.12,-480.13,-420.74,-430.95,-472.68,-438.08,-461.37,-342.95,-164.61
324,-470.53,-448.35,-362.84,-409.41,-415.32,-362.99,-391.45,-436.32,-487.23,-429.91,-436.21,-433.86,-477.49,-421.07,-432.41,-471.29,-440.9,-460.92,-343.51,-161.53
325,-459.57,-443.05,-354.52,-399.29,-410.41,-356.72,-385.25,-428.41,-477.98,-419.62,-425.46,-421.22,-468.51,-408.89,-419.44,-465.12,-422.6,-445.48,-333.08,-197.6
326,-458.53,-438.73,-350.4,-396.15,-406.07,-354.84,-384.44,-426.82,-476.4,-416.48,-420.68,-413.66,-457.57,-402.73,-413.9,-459.25,-410.03,-440.61,-329.43,-225.87
327,-476.62,-452.94,-365.06,-411.22,-423.39,-373.04,-401.28,-440.89,-489.73,-433.32,-435.34,-431.11,-474.36,-419.04,-430.05,-471.42,-423.12,-456.38,-344.76,-242.01
328,-454.04,-433.04,-345.54,-393.02,-403.6,-355.73,-383.04,-425.09,-467.96,-412.74,-417.62,-407.61,-456.95,-400.79,-414.45,-456.39,-423.82,-448.64,-331.07,-245.32
329,-433.35,-411.49,-328.89,-377.69,-387.45,-341.77,-368.13,-411.54,-446.74,-394.58,-402.16,-385.04,-444.97,-385.04,-398.57,-434.28,-395.6,-424.71,-316.18,-244.47
330,-436.74,-408.24,-324.08,-372.57,-389.58,-332.3,-362.93,-405.12,-443.69,-388.67,-396.77,-388.73,-435.2,-379.75,-392.66,-429.14,-397.05,-417.21,-310.75,-277.84
331,-432.18,-407.5,-322.61,-372.98,-392.06,-338.68,-364.52,-406.75,-435.46,-387.47,-398.71,-388.95,-437.66,-377.99,-393.81,-432.57,-398.63,-424.57,-314.52,-344.52
332,-434.79,-409.65,-323.48,-372.66,-398.4,-340.55,-365.05,-406.85,-438.58,-386.22,-398.01,-377.98,-444.71,-379.2,-395.34,-428.76,-387.08,-425.51,-316.33,-365.23
333,-445.58,-419.18,-329.64,-378.26,-410.4,-350.6,-372.02,-410.28,-445.06,-391.82,-401.68,-400.9,-437.96,-386.57,-399.53,-438.23,-405.01,-430.47,-317.49,-346.0
334,-441.41,-418.9,-327.99,-375.65,-407.14,-353.34,-372.45,-408.33,-440.31,-388.31,-398.57,-406.84,-429.37,-384.8,-399.24,-441.16,-402.79,-428.24,-316.75,-372.93
335,-458.27,-433.19,-341.97,-390.23,-425.19,-369.18,-387.75,-422.49,-452.97,-400.75,-412.63,-411.86,-455.61,-394.1,-413.17,-458.06,-410.72,-445.96,-331.44,-372.69
336,-482.54,-452.37,-359.92,-406.86,-447.14,-386.07,-401.81,-435.86,-474.62,-419.45,-429.58,-437.21,-478.11,-414.36,-430.23,-486.02,-426.43,-464.37,-343.9,-340.68
337,-460.51,-428.5,-336.81,-382.55,-425.66,-363.89,-377.47,-411.74,-450.98,-394.48,-406.38,-412.64,-450.74,-391.59,-406.99,-454.49,-413.8,-442.89,-322.58,-355.12
338,-432.06,-403.04,-313.85,-359.72,-403.95,-346.04,-357.18,-390.19,-424.69,-369.58,-383.34,-377.14,-424.74,-368.78,-385.21,-427.56,-395.41,-418.54,-302.82,-345.02
339,-432.34,-404.38,-310.8,-357.83,-405.27,-346.06,-357.88,-389.26,-425.73,-366.55,-379.42,-375.02,-419.87,-365.2,-379.85,-424.27,-392.31,-407.41,-297.91,-297.33
340,-450.38,-419.03,-322.94,-368.66,-418.14,-354.24,-369.02,-401.95,-437.03,-377.08,-391.45,-391.83,-432.45,-373.87,-390.12,-436.15,-383.54,-415.62,-307.31,-306.28
341,-440.78,-409.85,-314.28,-360.14,-409.71,-346.79,-357.57,-393.2,-430.25,-370.17,-383.25,-380.45,-424.28,-367.87,-382.9,-429.01,-379.7,-411.54,-302.56,-363.3
342,-438.35,-412.61,-316.52,-361.08,-411.26,-346.67,-359.05,-393.93,-433.48,-371.8,-383.57,-377.95,-432.18,-370.71,-383.41,-431.64,-400.39,-413.84,-301.93,-370.95
343,-458.75,-430.44,-332.29,-375.41,-429.18,-364.83,-374.26,-408.14,-452.75,-385.23,-397.25,-412.01,-453.29,-382.75,-395.34,-450.69,-406.12,-428.04,-312.3,-302.31
344,-468.24,-436.14,-340.68,-383.82,-437.38,-375.29,-386.16,-417.43,-457.05,-392.5,-404.7,-424.95,-454.23,-387.39,-402.58,-456.79,-414.93,-436.39,-319.18,-306.54
345,-464.94,-434.66,-342.93,-384.88,-432.6,-378.28,-386.95,-419.16,-458.11,-393.36,-406.07,-409.67,-443.47,-389.21,-403.31,-447.19,-407.92,-433.07,-319.04,-280.67
346,-464.45,-433.18,-341.66,-383.14,-427.63,-371.29,-383.63,-416.23,-455.51,-393.47,-403.4,-413.09,-448.73,-385.58,-398.52,-446.25,-400.91,-431.6,-314.63,-219.07
347,-473.14,-443.47,-350.58,-391.79,-436.04,-374.32,-389.6,-426.81,-465.48,-404.12,-412.55,-419.17,-450.02,-394.3,-407.21,-460.72,-422.06,-439.22,-323.95,-255.23
348,-471.81,-444.75,-352.62,-393.39,-439.09,-372.95,-386.46,-424.93,-469.11,-405.35,-412.86,-422.28,-449.97,-397.74,-409.74,-466.04,-424.49,-441.46,-325.36,-302.25
349,-465.94,-436.34,-342.63,-383.96,-431.35,-363.09,-377.55,-414.96,-461.69,-397.2,-404.2,-411.79,-448.32,-388.74,-401.33,-456.1,-407.75,-432.64,-316.56,-282.61
350,-470.21,-435.55,-342.4,-386.0,-432.44,-370.87,-382.21,-416.56,-461.89,-398.4,-406.2,-413.92,-455.58,-389.95,-401.2,-456.54,-410.78,-428.62,-317.1,-226.36
351,-473.86,-438.62,-347.57,-392.05,-433.38,-376.99,-387.8,-422.65,-466.0,-403.51,-412.93,-416.86,-459.57,-395.33,-407.12,-450.62,-412.36,-437.21,-324.19,-216.36
352,-469.65,-439.08,-344.62,-390.2,-427.02,-369.78,-385.54,-422.26,-463.46,-401.11,-412.0,-415.96,-447.04,-392.69,-408.47,-452.38,-413.2,-443.02,-324.77,-257.28
353,-467.16,-437.17,-342.34,-386.6,-427.89,-364.63,-379.06,-416.9,-461.84,-399.36,-409.5,-416.31,-450.69,-390.07,-405.21,-458.33,-414.41,-438.17,-321.64,-273.22
354,-456.32,-432.36,-339.64,-383.74,-426.93,-366.34,-376.82,-413.2,-457.37,-395.09,-406.02,-409.25,-449.25,-387.1,-401.38,-444.99,-411.89,-431.61,-317.4,-289.06
355,-454.99,-429.08,-341.56,-385.77,-428.97,-367.24,-380.86,-416.96,-456.61,-395.99,-408.42,-395.34,-444.62,-389.86,-402.75,-447.6,-415.19,-432.73,-322.26,-293.52
356,-478.57,-445.7,-353.33,-397.91,-445.48,-384.03,-395.61,-430.99,-471.79,-407.16,-417.87,-424.58,-462.93,-400.18,-413.0,-450.38,-403.73,-443.15,-333.68,-246.82
357,-481.29,-442.22,-345.8,-391.35,-439.19,-378.07,-391.65,-426.24,-466.3,-399.53,-411.36,-432.37,-449.16,-393.97,-408.6,-448.38,-413.71,-445.63,-331.51,-255.81
358,-465.62,-428.84,-335.51,-382.16,-428.37,-366.43,-384.43,-421.12,-450.49,-389.24,-403.48,-409.33,-441.18,-384.32,-400.32,-445.83,-410.04,-436.01,-324.52,-238.74
359,-458.97,-426.58,-336.94,-384.64,-426.38,-372.93,-388.17,-423.9,-448.59,-388.25,-402.81,-399.17,-435.56,-379.22,-395.82,-443.0,-405.3,-426.23,-321.66,-157.61
360,-441.78,-412.7,-325.11,-371.18,-410.99,-361.83,-373.96,-410.72,-434.71,-374.75,-388.25,-381.54,-429.21,-363.82,-381.76,-429.37,-396.69,-416.37,-308.3,-83.28
361,-416.32,-396.43,-310.27,-354.5,-396.15,-340.96,-358.58,-394.93,-413.38,-357.55,-369.48,-366.67,-397.82,-344.39,-362.36,-403.17,-364.93,-395.3,-291.86,-75.98
362,-435.07,-411.69,-323.31,-364.7,-411.73,-356.53,-369.16,-405.25,-426.5,-369.72,-382.73,-384.18,-408.08,-357.51,-374.0,-414.32,-367.63,-401.87,-303.92,-20.35
363,-459.76,-427.27,-334.95,-374.74,-425.92,-367.89,-377.53,-413.94,-446.35,-381.99,-393.97,-392.64,-428.06,-371.04,-388.46,-431.37,-391.49,-418.9,-314.98,25.05
364,-457.72,-425.28,-332.83,-376.08,-425.25,-366.19,-378.97,-414.01,-445.89,-381.36,-394.86,-395.37,-429.64,-372.29,-389.11,-428.67,-394.15,-422.43,-314.5,-10.6
365,-442.9,-411.33,-324.36,-371.05,-411.1,-362.62,-375.81,-409.61,-429.93,-373.39,-389.81,-391.84,-417.53,-363.36,-381.76,-421.24,-382.62,-412.71,-307.95,-25.21
366,-443.68,-412.67,-328.09,-373.67,-411.91,-363.19,-377.1,-413.61,-434.89,-379.07,-395.21,-386.32,-423.37,-370.56,-387.84,-427.62,-379.68,-417.98,-312.1,-81.24
367,-452.51,-424.75,-339.9,-382.52,-426.87,-372.82,-383.99,-420.83,-444.78,-389.0,-405.51,-386.72,-433.02,-382.67,-398.48,-429.18,-403.89,-428.57,-321.1,-182.82
368,-447.91,-425.68,-338.85,-381.98,-425.18,-370.78,-383.1,-420.06,-443.09,-387.95,-404.59,-390.33,-429.44,-380.03,-396.95,-427.68,-403.95,-428.81,-320.58,-219.48
369,-452.47,-430.05,-339.28,-380.89,-427.09,-370.69,-384.12,-416.88,-446.62,-389.91,-403.29,-398.37,-431.42,-379.26,-395.92,-433.09,-403.32,-426.52,-317.69,-76.33
370,-466.75,-438.13,-344.88,-386.48,-434.76,-373.34,-388.46,-421.85,-455.7,-396.36,-408.32,-407.91,-438.86,-385.37,-399.87,-443.35,-413.61,-427.81,-321.49,-18.87
371,-467.37,-438.95,-345.59,-388.71,-433.48,-372.99,-387.5,-423.96,-457.58,-400.29,-410.97,-411.96,-443.96,-391.12,-406.2,-442.06,-405.95,-439.27,-326.84,-143.35
372,-461.37,-433.49,-345.23,-386.52,-427.73,-370.99,-385.86,-419.02,-452.78,-398.74,-408.82,-403.09,-441.75,-386.45,-403.78,-440.3,-402.11,-437.64,-325.12,-152.22
373,-457.36,-428.45,-342.69,-385.42,-421.35,-370.5,-385.69,-416.2,-446.57,-395.3,-405.8,-404.17,-432.05,-382.12,-398.78,-435.13,-403.43,-430.71,-322.54,-102.59
374,-444.37,-420.37,-339.0,-382.69,-417.39,-368.81,-383.04,-412.45,-438.01,-388.89,-401.06,-392.14,-423.01,-373.68,-392.47,-431.41,-396.16,-422.53,-318.63,-137.07
375,-451.01,-428.31,-347.78,-393.25,-427.18,-375.06,-391.12,-422.69,-445.37,-396.55,-411.19,-396.54,-428.2,-382.99,-401.26,-439.78,-398.34,-429.51,-328.39,-87.34
376,-462.74,-434.69,-351.52,-395.32,-428.41,-371.46,-390.83,-424.79,-452.92,-402.53,-414.9,-399.2,-435.61,-385.93,-404.74,-443.17,-407.73,-439.91,-333.37,-1.68
377,-458.5,-429.9,-342.88,-385.53,-420.85,-361.54,-378.44,-414.69,-450.51,-395.93,-406.07,-397.95,-433.78,-381.27,-397.75,-434.72,-408.8,-430.79,-324.16,-24.31
378,-458.29,-427.2,-337.34,-378.88,-423.98,-359.33,-375.26,-411.7,-445.83,-390.76,-400.08,-383.12,-427.65,-376.03,-391.15,-429.87,-386.01,-419.85,-320.22,-79.55
379,-472.63,-435.73,-340.87,-383.49,-429.34,-365.66,-380.97,-416.33,-456.09,-397.46,-405.82,-396.71,-433.31,-380.66,-396.59,-432.39,-394.72,-424.76,-323.63,-32.07
380,-477.21,-435.37,-340.36,-382.54,-434.58,-367.12,-382.26,-418.89,-457.93,-397.21,-405.53,-419.08,-447.21,-382.1,-398.85,-435.98,-401.48,-427.38,-325.89,41.68
381,-479.73,-439.69,-347.94,-391.51,-439.84,-377.36,-394.71,-429.72,-458.14,-402.49,-411.97,-424.66,-441.73,-385.32,-405.26,-446.0,-403.23,-437.83,-334.94,-32.35
382,-488.83,-444.6,-355.3,-397.37,-443.21,-382.99,-397.56,-433.05,-460.01,-407.96,-418.35,-438.23,-443.27,-393.9,-412.54,-456.49,-421.31,-449.21,-341.14,-30.0
383,-495.2,-443.01,-346.18,-388.28,-446.07,-368.65,-384.89,-423.49,-458.16,-400.92,-409.24,-436.85,-439.91,-386.62,-404.97,-453.54,-415.07,-442.07,-333.44,-33.14
384,-480.81,-430.75,-334.08,-375.72,-432.41,-359.1,-374.65,-411.91,-443.56,-386.52,-395.94,-415.69,-425.71,-369.05,-390.17,-431.26,-386.96,-422.84,-320.46,-130.18
385,-489.74,-438.35,-339.06,-380.34,-444.69,-363.81,-379.18,-414.97,-448.01,-390.26,-399.41,-413.22,-425.67,-372.98,-392.44,-433.2,-391.18,-419.29,-321.71,-172.63
386,-515.45,-459.03,-357.5,-397.71,-467.62,-385.22,-395.06,-428.31,-470.85,-410.25,-417.68,-438.52,-445.66,-393.85,-410.92,-453.48,-412.96,-437.5,-334.45,-147.06
387,-507.19,-448.39,-349.91,-388.72,-455.46,-376.19,-386.73,-420.16,-462.09,-401.22,-409.37,-433.94,-439.33,-385.02,-403.42,-436.96,-396.31,-434.96,-327.68,-164.65
388,-500.54,-437.99,-337.96,-377.68,-449.98,-365.28,-377.07,-409.82,-449.73,-390.3,-397.63,-426.22,-435.29,-372.65,-393.56,-430.51,-393.77,-424.38,-321.34,-162.49
389,-506.46,-438.14,-335.73,-375.5,-451.67,-366.08,-372.52,-406.09,-450.91,-388.9,-395.24,-433.69,-436.22,-371.06,-392.22,-435.36,-389.74,-421.99,-321.87,-154.94
390,-513.0,-440.58,-335.12,-373.63,-454.82,-362.02,-371.24,-404.03,-453.61,-387.19,-394.4,-434.28,-437.47,-369.45,-392.8,-433.05,-389.67,-423.73,-322.88,-166.92
391,-517.22,-444.43,-337.38,-377.16,-465.39,-369.07,-374.56,-409.54,-452.28,-387.97,-396.65,-437.39,-435.75,-371.28,-395.44,-435.2,-394.23,-426.96,-326.54,-207.84
392,-524.25,-449.85,-339.3,-376.44,-473.21,-371.17,-377.45,-410.3,-455.24,-387.46,-396.48,-443.99,-431.76,-370.83,-394.44,-433.58,-401.33,-427.68,-327.51,-154.75
393,-536.71,-460.44,-345.46,-381.25,-481.47,-378.55,-380.56,-410.02,-464.19,-394.2,-401.47,-460.94,-438.57,-377.83,-401.3,-438.86,-389.01,-431.77,-330.55,-34.14
394,-534.09,-460.13,-344.72,-380.09,-484.57,-380.25,-379.38,-407.55,-462.3,-392.26,-399.63,-444.48,-437.21,-372.36,-397.79,-434.76,-392.73,-430.3,-328.82,-18.67
395,-539.94,-462.45,-344.85,-379.8,-490.59,-379.21,-380.42,-411.83,-463.24,-393.47,-400.95,-450.68,-435.44,-373.8,-400.8,-432.35,-394.73,-425.8,-330.69,11.11
396,-550.79,-468.95,-350.64,-386.92,-492.76,-383.72,-386.16,-418.19,-474.98,-400.7,-407.65,-463.63,-439.91,-380.93,-405.96,-433.41,-389.07,-431.22,-336.38,12.41
397,-546.27,-462.58,-343.74,-379.48,-487.2,-382.65,-378.13,-410.64,-465.7,-394.32,-402.18,-454.36,-438.17,-372.77,-401.09,-426.26,-396.63,-436.21,-335.19,-42.79
398,-555.7,-469.37,-351.47,-386.99,-500.97,-387.4,-385.48,-415.72,-467.62,-401.59,-409.6,-461.12,-439.5,-379.25,-408.54,-433.65,-404.62,-440.3,-341.99,-48.38
399,-552.96,-468.29,-351.14,-385.96,-499.92,-389.68,-385.42,-415.66,-468.44,-398.85,-407.21,-458.11,-434.55,-375.91,-405.89,-431.59,-395.42,-436.93,-342.83,-5.18
400,-558.42,-468.68,-347.63,-384.69,-499.34,-390.82,-385.05,-415.46,-468.35,-397.09,-404.37,-454.02,-437.95,-373.14,-403.7,-426.16,-388.86,-433.73,-340.81,23.78
401,-555.82,-466.35,-347.09,-384.57,-499.83,-385.57,-382.99,-414.94,-462.57,-396.92,-405.81,-453.77,-437.83,-372.17,-403.71,-422.81,-390.13,-434.48,-342.23,32.68
402,-559.73,-467.65,-344.41,-379.75,-503.68,-381.69,-377.0,-411.25,-458.76,-394.27,-403.11,-463.71,-430.17,-370.06,-401.56,-423.49,-392.22,-431.95,-339.31,49.52
403,-567.6,-475.57,-347.58,-382.61,-509.22,-383.52,-378.1,-414.63,-469.5,-399.66,-406.96,-467.38,-435.72,-375.19,-406.0,-421.51,-393.68,-434.4,-340.93,85.85
404,-572.01,-482.97,-355.28,-386.54,-521.93,-394.31,-381.6,-414.94,-475.29,-406.23,-412.05,-462.46,-441.64,-380.92,-410.36,-421.29,-391.37,-438.07,-344.54,47.44
405,-575.07,-481.82,-354.99,-386.61,-525.07,-389.94,-380.3,-413.43,-474.54,-406.06,-412.09,-474.28,-438.66,-381.13,-410.46,-422.48,-396.02,-439.15,-346.85,64.63
406,-579.15,-481.12,-352.95,-386.91,-525.67,-388.86,-380.57,-414.79,-471.92,-403.92,-409.76,-479.44,-431.34,-376.56,-410.08,-418.54,-389.37,-438.81,-348.82,139.76
407,-575.88,-481.36,-353.89,-391.08,-531.4,-395.75,-385.45,-422.66,-471.54,-404.61,-411.96,-475.52,-431.48,-376.22,-411.06,-422.92,-385.74,-441.95,-352.68,93.57
408,-562.8,-473.45,-349.31,-387.85,-523.87,-394.34,-383.67,-418.78,-466.72,-402.2,-411.23,-461.62,-433.17,-375.01,-411.38,-418.05,-396.4,-441.61,-351.39,26.93
409,-566.94,-466.01,-340.99,-379.31,-518.95,-388.76,-374.7,-408.04,-462.65,-394.74,-403.0,-458.96,-421.92,-370.0,-407.94,-408.85,-388.8,-439.76,-348.45,39.27
410,-573.23,-470.4,-341.33,-380.01,-523.77,-383.42,-375.34,-411.7,-464.02,-395.31,-403.74,-471.14,-427.27,-370.55,-410.08,-410.96,-384.76,-440.52,-351.01,16.07
411,-558.48,-462.32,-337.1,-375.21,-511.28,-377.57,-368.52,-404.34,-456.02,-391.25,-399.89,-448.91,-419.71,-366.59,-407.54,-400.03,-385.91,-434.46,-349.94,-71.2
412,-561.13,-465.55,-340.3,-378.56,-518.08,-380.04,-370.85,-411.39,-460.05,-395.38,-403.57,-442.5,-431.27,-371.14,-411.72,-397.9,-375.32,-437.2,-354.61,-55.08
413,-570.24,-478.48,-351.9,-388.34,-524.7,-386.43,-379.16,-418.69,-475.45,-408.48,-413.94,-455.47,-437.6,-381.14,-422.13,-402.77,-389.72,-445.58,-363.13,2.59
414,-561.85,-478.77,-348.69,-384.2,-522.55,-388.69,-375.86,-412.76,-472.24,-404.07,-409.57,-450.04,-426.68,-375.71,-419.26,-397.11,-379.49,-443.06,-361.91,-50.33
415,-570.07,-479.35,-349.16,-385.84,-527.27,-388.1,-375.89,-414.93,-471.48,-405.9,-411.69,-468.05,-428.81,-376.46,-420.32,-401.72,-388.99,-445.87,-365.52,-38.73
416,-577.22,-481.49,-350.46,-388.0,-526.31,-386.97,-375.53,-417.7,-472.68,-406.85,-413.14,-488.11,-431.46,-375.96,-421.45,-406.33,-388.54,-448.96,-367.89,9.36
417,-568.12,-477.65,-348.33,-388.13,-522.35,-385.41,-376.59,-418.15,-469.77,-404.7,-412.39,-475.38,-430.83,-373.81,-419.58,-404.58,-394.64,-445.58,-369.4,-29.62
418,-570.43,-479.12,-354.13,-394.65,-527.98,-387.66,-382.59,-424.94,-472.37,-410.35,-418.66,-470.56,-428.76,-378.27,-423.77,-402.57,-392.23,-448.25,-374.57,-77.36
419,-579.81,-482.89,-356.51,-397.29,-533.06,-398.38,-384.8,-425.88,-476.77,-411.03,-419.5,-477.03,-421.57,-377.91,-423.54,-397.53,-377.72,-447.69,-373.41,-45.1
420,-584.02,-484.46,-355.5,-399.53,-532.69,-391.57,-383.59,-428.17,-478.3,-411.31,-418.23,-474.0,-424.89,-378.09,-422.86,-398.06,-390.99,-445.54,-373.05,-69.6
421,-562.55,-473.29,-354.62,-398.0,-524.35,-393.25,-381.54,-428.12,-471.54,-410.07,-417.61,-448.67,-422.92,-374.99,-420.94,-387.63,-382.03,-443.66,-371.69,-146.33
422,-562.06,-474.37,-350.55,-394.83,-527.97,-383.63,-378.13,-427.78,-467.2,-407.13,-415.94,-450.17,-426.38,-374.39,-421.71,-389.92,-375.13,-440.93,-371.77,-78.23
423,-579.3,-479.41,-351.49,-395.07,-531.28,-390.74,-379.15,-425.83,-472.09,-404.82,-414.69,-470.55,-429.81,-372.7,-418.37,-388.84,-378.68,-440.35,-371.55,-31.62
424,-572.39,-478.22,-356.26,-400.63,-533.72,-396.85,-386.71,-433.33,-477.18,-408.65,-417.8,-478.31,-431.99,-374.44,-423.17,-391.8,-381.32,-451.64,-376.94,-107.65
425,-567.68,-474.09,-348.76,-393.75,-525.63,-390.17,-377.04,-428.12,-464.4,-401.09,-410.25,-483.86,-429.22,-368.83,-421.38,-395.27,-384.69,-451.1,-373.56,-82.82
426,-573.08,-476.48,-349.93,-393.71,-525.63,-389.75,-376.0,-428.48,-464.73,-402.15,-410.69,-485.74,-423.39,-368.58,-421.0,-395.97,-388.31,-447.4,-373.89,3.19
427,-575.25,-481.67,-355.73,-400.1,-530.82,-392.72,-381.95,-436.01,-471.18,-408.27,-417.5,-481.43,-426.09,-374.6,-427.47,-396.73,-379.99,-448.91,-379.93,13.17
428,-574.08,-485.95,-358.02,-402.25,-536.48,-397.57,-383.7,-436.38,-473.02,-409.8,-420.5,-477.65,-423.46,-374.01,-430.25,-396.56,-385.16,-452.52,-384.38,-4.42
429,-564.59,-478.88,-352.94,-398.72,-528.27,-389.1,-378.19,-434.85,-468.02,-406.17,-415.78,-463.73,-415.1,-371.12,-428.52,-382.15,-382.24,-450.39,-385.01,18.06
430,-570.25,-478.94,-353.06,-398.74,-527.62,-389.47,-377.95,-436.93,-469.56,-405.29,-417.17,-453.25,-428.72,-367.93,-429.24,-381.51,-382.44,-451.2,-387.87,5.6
431,-561.24,-474.18,-352.76,-399.74,-524.46,-386.71,-376.49,-434.98,-465.29,-402.88,-416.4,-450.45,-420.36,-364.64,-429.42,-374.26,-377.54,-447.42,-387.05,-86.94
432,-556.1,-480.09,-359.62,-407.74,-526.62,-390.8,-384.57,-442.66,-472.82,-411.39,-423.17,-466.54,-427.32,-369.98,-435.07,-381.31,-376.18,-456.62,-394.75,-90.71
433,-575.05,-487.18,-367.44,-416.16,-538.06,-402.95,-392.67,-451.72,-480.92,-418.0,-429.67,-483.87,-432.79,-374.52,-440.63,-388.38,-389.72,-463.36,-400.31,-12.86
434,-563.22,-482.84,-363.14,-413.62,-532.59,-403.43,-389.87,-452.18,-470.39,-413.39,-428.15,-473.42,-420.19,-371.48,-439.66,-381.37,-387.21,-460.58,-400.3,-55.28
435,-557.06,-478.93,-360.99,-414.25,-527.64,-397.16,-390.29,-455.05,-467.11,-414.03,-429.07,-471.85,-416.32,-371.12,-441.11,-382.39,-377.42,-463.65,-402.85,-101.64
436,-558.85,-466.99,-358.2,-413.78,-523.16,-400.28,-389.94,-456.78,-463.38,-411.0,-427.51,-463.13,-415.51,-366.01,-439.63,-376.04,-374.17,-460.81,-401.86,-46.59
437,-554.49,-472.06,-357.92,-415.84,-523.62,-401.89,-392.4,-460.84,-464.85,-412.42,-429.46,-468.47,-418.38,-369.24,-443.27,-379.29,-377.7,-463.01,-405.2,-33.09
438,-537.34,-467.77,-353.94,-414.4,-517.83,-395.92,-390.66,-463.0,-459.14,-407.52,-427.76,-418.69,-416.29,-365.07,-440.76,-372.3,-378.34,-462.46,-406.22,-77.25
439,-548.31,-462.0,-355.84,-417.63,-520.8,-404.02,-394.25,-467.04,-457.08,-408.95,-430.04,-435.84,-405.77,-364.11,-439.94,-362.54,-366.43,-461.67,-408.21,4.39
440,-554.54,-465.08,-359.86,-420.87,-523.09,-401.7,-396.92,-469.09,-460.4,-412.04,-433.59,-483.52,-414.04,-365.22,-442.68,-368.85,-383.89,-461.83,-408.95,36.31
441,-535.71,-461.84,-358.87,-422.95,-514.51,-405.02,-396.72,-472.0,-457.58,-411.62,-434.5,-456.02,-411.89,-364.99,-442.82,-365.83,-373.57,-462.09,-411.02,-50.24
442,-535.83,-460.76,-361.42,-426.64,-515.07,-404.98,-401.3,-476.5,-458.92,-414.37,-438.43,-455.47,-414.83,-367.65,-445.57,-367.3,-372.89,-462.69,-414.74,-58.37
443,-544.4,-461.18,-360.48,-426.4,-518.12,-413.8,-401.95,-476.26,-460.25,-412.44,-435.48,-460.96,-413.55,-365.54,-442.76,-367.37,-363.01,-458.42,-410.8,-8.11
444,-538.06,-448.77,-353.96,-421.23,-511.93,-408.71,-397.67,-471.79,-448.71,-405.58,-430.31,-440.45,-402.64,-357.79,-437.73,-359.29,-362.76,-456.47,-407.42,-5.3
445,-520.8,-448.24,-352.35,-421.13,-501.27,-399.64,-396.24,-476.64,-443.27,-405.05,-429.33,-423.57,-395.21,-355.75,-438.12,-356.43,-364.01,-457.89,-410.61,12.81
446,-527.5,-451.45,-356.53,-424.69,-504.73,-404.35,-396.1,-477.53,-453.08,-411.21,-433.22,-445.77,-406.26,-361.97,-441.72,-371.36,-372.45,-459.36,-412.57,35.59
447,-529.99,-451.41,-356.2,-424.97,-506.3,-404.78,-397.67,-480.75,-452.46,-411.5,-431.32,-448.94,-405.04,-359.76,-438.3,-366.14,-362.69,-456.75,-409.9,-23.44
448,-520.56,-447.15,-353.37,-424.2,-503.55,-410.29,-399.8,-481.92,-444.67,-408.95,-429.44,-418.66,-395.63,-353.44,-434.15,-355.02,-356.03,-455.09,-408.26,-87.22
449,-527.38,-450.97,-357.77,-431.15,-509.37,-415.66,-404.93,-486.32,-448.78,-413.39,-435.29,-452.46,-407.95,-359.08,-439.35,-367.4,-370.3,-458.09,-411.69,-29.96
450,-535.05,-448.73,-356.12,-430.69,-508.57,-411.29,-405.68,-489.81,-447.11,-411.84,-434.71,-458.13,-403.77,-359.34,-438.9,-364.39,-365.59,-456.05,-411.19,1.94
451,-530.18,-451.15,-358.15,-434.07,-513.92,-417.77,-408.08,-494.87,-448.57,-412.93,-436.78,-453.99,-396.71,-359.86,-439.92,-364.09,-367.96,-459.27,-413.4,11.43
452,-520.11,-447.4,-353.35,-429.04,-508.25,-413.16,-403.8,-492.86,-445.07,-406.71,-431.44,-430.35,-401.83,-353.19,-433.25,-355.14,-350.44,-451.15,-406.47,42.42
453,-524.96,-445.78,-354.4,-430.04,-509.43,-421.87,-404.9,-494.28,-450.39,-406.86,-430.04,-429.8,-399.18,-351.91,-429.86,-355.58,-341.44,-444.29,-403.09,96.88
454,-531.03,-458.01,-357.47,-433.71,-516.24,-424.96,-412.39,-499.19,-450.54,-408.27,-430.29,-445.27,-406.08,-351.08,-430.33,-362.18,-353.38,-441.56,-404.62,66.97
455,-523.77,-448.25,-348.56,-426.1,-508.5,-414.23,-404.55,-494.6,-440.52,-400.04,-423.58,-440.18,-399.42,-343.24,-423.15,-353.2,-347.94,-434.21,-399.05,49.4
456,-526.74,-446.51,-353.45,-430.4,-513.29,-424.19,-408.99,-497.19,-447.03,-403.55,-426.79,-445.53,-399.85,-345.48,-423.51,-355.25,-338.25,-431.74,-398.85,69.88
457,-536.51,-458.97,-362.52,-437.48,-521.38,-431.4,-415.53,-502.53,-454.07,-412.81,-435.05,-447.88,-413.56,-352.49,-431.18,-360.17,-352.12,-439.69,-404.8,9.93
458,-536.7,-465.46,-369.59,-443.31,-521.65,-433.98,-417.73,-506.8,-459.18,-419.48,-440.12,-446.28,-414.41,-356.19,-435.65,-362.18,-348.31,-442.77,-409.45,-47.94
459,-537.89,-466.92,-371.51,-446.46,-522.91,-432.34,-420.88,-510.15,-462.24,-420.77,-442.65,-442.41,-409.26,-356.39,-436.95,-360.24,-352.61,-443.21,-411.34,-31.36
460,-529.43,-455.68,-363.59,-441.73,-514.89,-427.36,-416.14,-507.36,-451.11,-413.77,-436.92,-441.68,-402.96,-349.19,-429.08,-347.76,-339.04,-433.76,-407.47,-43.1
461,-523.2,-455.13,-363.54,-444.76,-511.85,-433.4,-422.36,-514.5,-447.09,-412.93,-438.67,-440.78,-393.88,-349.18,-428.38,-342.27,-331.81,-432.2,-410.01,-76.19
462,-521.29,-458.82,-365.98,-446.96,-513.22,-431.18,-424.24,-517.94,-449.65,-414.6,-440.11,-426.59,-395.43,-350.0,-427.47,-342.32,-326.66,-431.53,-412.67,-66.27
463,-511.86,-451.84,-359.79,-441.43,-505.88,-428.68,-416.94,-514.19,-444.9,-408.33,-432.47,-414.31,-397.66,-344.7,-421.48,-336.29,-331.81,-428.87,-408.5,-40.5
464,-518.62,-458.21,-367.35,-448.8,-516.17,-435.26,-428.93,-522.32,-445.38,-413.75,-439.14,-425.21,-396.31,-350.42,-426.97,-339.58,-336.13,-433.25,-413.94,-124.73
465,-507.32,-456.05,-368.88,-451.61,-512.42,-438.39,-431.32,-528.01,-443.17,-413.76,-440.24,-426.21,-391.23,-349.49,-429.25,-337.12,-327.75,-436.87,-418.28,-197.64
466,-519.88,-449.18,-367.35,-451.32,-509.93,-438.97,-429.66,-528.64,-442.61,-412.42,-441.09,-433.13,-387.29,-350.13,-428.86,-334.82,-332.69,-438.4,-418.88,-175.05
467,-508.68,-447.54,-365.86,-452.65,-507.01,-432.59,-432.01,-531.45,-439.18,-411.32,-441.38,-411.27,-389.76,-349.82,-429.36,-330.84,-326.56,-436.73,-422.61,-174.35
468,-506.47,-444.48,-367.08,-456.85,-504.64,-437.56,-436.66,-535.65,-434.34,-413.25,-445.4,-396.76,-387.37,-353.5,-434.91,-327.59,-325.99,-440.16,-427.1,-221.65
469,-503.03,-431.58,-354.38,-446.08,-498.52,-432.47,-425.39,-524.62,-424.53,-401.25,-434.6,-390.63,-382.97,-343.96,-424.6,-319.31,-314.26,-431.96,-416.82,-190.05
470,-487.18,-426.07,-346.94,-440.18,-484.76,-422.66,-418.59,-519.74,-419.63,-395.88,-427.08,-401.17,-377.32,-338.51,-418.03,-310.82,-300.33,-424.33,-411.59,-164.26
471,-475.49,-419.44,-347.29,-440.66,-483.17,-427.23,-419.98,-519.99,-415.49,-397.39,-427.09,-390.06,-361.97,-339.15,-418.71,-306.48,-304.3,-423.85,-412.54,-228.5
472,-484.69,-435.29,-351.85,-446.4,-492.93,-427.14,-423.7,-524.2,-423.02,-402.71,-433.94,-405.81,-368.77,-345.06,-426.12,-314.06,-325.5,-431.79,-416.99,-224.06
473,-507.53,-440.69,-358.79,-454.42,-501.84,-432.18,-430.48,-533.33,-435.05,-412.68,-442.84,-416.46,-381.13,-357.0,-435.45,-324.56,-329.91,-439.26,-423.31,-163.57
474,-504.3,-433.08,-357.45,-455.56,-502.11,-436.4,-432.27,-536.52,-429.11,-411.23,-442.53,-416.1,-374.2,-356.98,-436.71,-328.94,-332.51,-443.65,-424.29,-200.94
475,-505.14,-439.86,-361.38,-461.43,-504.32,-441.98,-438.67,-542.34,-431.38,-413.75,-447.23,-409.53,-373.32,-360.69,-443.11,-328.46,-328.64,-453.65,-430.1,-198.93
476,-490.69,-429.03,-354.54,-454.86,-494.11,-435.71,-430.78,-533.55,-428.38,-407.14,-439.23,-385.85,-365.71,-355.83,-436.52,-316.33,-318.42,-448.8,-423.33,-145.95
477,-471.0,-414.85,-336.99,-439.29,-476.43,-417.36,-414.83,-522.33,-410.57,-391.01,-424.83,-380.44,-353.93,-341.06,-425.32,-301.78,-314.8,-438.28,-414.58,-182.18
478,-468.53,-412.0,-335.3,-439.91,-477.15,-422.11,-419.68,-525.34,-401.8,-389.16,-424.34,-375.05,-345.41,-338.85,-424.76,-299.21,-313.84,-432.13,-416.51,-202.84
479,-473.22,-411.05,-338.91,-443.58,-476.63,-423.33,-421.09,-528.98,-408.57,-393.85,-428.99,-380.29,-356.07,-343.73,-429.56,-299.19,-317.78,-436.27,-421.79,-101.2
480,-470.03,-421.18,-339.91,-445.09,-480.21,-420.39,-419.78,-533.09,-416.1,-398.34,-433.09,-390.21,-356.34,-349.89,-435.23,-302.5,-318.06,-443.07,-426.32,-39.59
481,-483.2,-415.01,-342.94,-448.22,-487.14,-426.59,-425.88,-538.37,-414.69,-400.5,-435.89,-382.36,-358.91,-354.29,-438.51,-305.43,-324.71,-447.79,-431.77,-77.53
482,-501.26,-420.59,-346.73,-453.19,-490.68,-430.5,-429.33,-542.74,-417.9,-403.08,-439.0,-392.65,-362.12,-356.71,-439.85,-301.26,-319.11,-447.49,-434.33,-61.38
483,-482.27,-423.32,-347.31,-454.01,-491.6,-430.37,-430.01,-544.06,-423.93,-403.91,-439.67,-390.11,-363.94,-356.91,-442.13,-302.8,-322.09,-454.71,-437.55,-45.48
484,-476.49,-428.6,-352.65,-458.72,-495.71,-436.68,-435.03,-550.41,-421.31,-406.35,-444.92,-382.18,-361.34,-360.11,-447.93,-304.42,-323.55,-461.2,-444.17,-104.0
485,-475.32,-422.57,-344.32,-453.5,-492.51,-435.08,-429.04,-542.72,-412.01,-398.25,-436.72,-373.52,-348.39,-354.21,-441.87,-292.89,-314.51,-455.22,-439.91,-126.97
486,-485.14,-419.24,-341.91,-450.87,-491.82,-427.73,-427.84,-542.72,-411.08,-394.18,-434.07,-384.45,-351.9,-349.6,-436.95,-292.01,-315.22,-452.16,-436.3,-105.41
487,-494.41,-422.24,-343.32,-452.79,-494.63,-433.22,-431.78,-546.51,-411.31,-394.97,-435.74,-391.2,-349.5,-350.7,-437.96,-294.43,-314.87,-450.71,-438.12,-115.81
488,-483.8,-420.1,-346.07,-456.91,-499.17,-442.71,-436.7,-549.53,-406.13,-397.06,-438.18,-389.49,-349.7,-354.56,-438.55,-291.8,-315.68,-448.73,-438.19,-165.9
489,-493.04,-435.68,-354.77,-465.2,-509.17,-451.85,-446.17,-557.76,-421.06,-406.39,-446.55,-394.0,-365.51,-364.92,-445.6,-299.69,-323.38,-455.77,-443.54,-141.88
490,-500.16,-430.05,-351.17,-460.11,-503.81,-444.18,-441.51,-551.99,-416.72,-400.32,-439.58,-385.76,-357.31,-357.13,-438.23,-294.07,-314.7,-454.38,-439.53,-142.91
491,-464.6,-413.25,-335.62,-446.48,-489.42,-431.61,-427.0,-540.63,-391.75,-382.49,-423.56,-366.48,-332.44,-341.81,-423.74,-274.42,-293.92,-440.5,-427.89,-229.76
492,-473.62,-422.8,-342.32,-455.36,-499.16,-440.53,-434.54,-548.09,-405.99,-388.94,-429.89,-371.33,-343.04,-348.38,-431.13,-281.28,-303.99,-447.69,-434.6,-245.37
493,-482.69,-423.45,-349.97,-460.84,-501.02,-447.25,-438.81,-552.51,-410.22,-393.05,-433.87,-386.76,-350.73,-354.33,-436.23,-288.21,-322.67,-451.88,-438.55,-209.09
494,-483.77,-410.96,-338.62,-451.16,-493.97,-431.74,-427.33,-544.11,-397.97,-382.58,-425.41,-362.99,-344.81,-349.08,-430.28,-281.91,-314.74,-446.61,-431.59,-240.29
495,-470.69,-412.19,-332.42,-445.87,-487.69,-427.87,-424.89,-540.56,-391.11,-377.8,-421.9,-354.94,-340.45,-343.58,-424.53,-274.86,-298.56,-440.63,-427.95,-281.63
496,-471.04,-416.72,-338.3,-450.92,-489.05,-432.08,-427.87,-544.54,-398.72,-383.43,-427.24,-391.8,-344.52,-349.87,-430.97,-276.95,-309.79,-447.89,-432.13,-207.72
497,-488.11,-422.3,-345.42,-458.8,-495.41,-435.92,-434.33,-553.52,-405.87,-391.69,-435.83,-399.19,-347.25,-359.82,-441.06,-287.57,-317.5,-457.06,-441.3,-211.49
498,-477.65,-414.39,-345.47,-460.29,-496.59,-438.0,-435.99,-555.37,-399.39,-391.81,-436.77,-373.07,-335.85,-360.52,-440.34,-283.9,-313.57,-454.71,-441.54,-283.16
499,-463.28,-398.74,-337.47,-455.79,-488.2,-431.85,-431.37,-552.28,-391.61,-383.62,-430.31,-359.46,-329.04,-355.29,-435.26,-274.75,-310.54,-451.29,-437.06,-287.73
500,-472.71,-408.84,-336.89,-459.81,-488.45,-432.67,-435.81,-556.32,-388.99,-383.77,-432.21,-373.01,-332.74,-356.76,-438.57,-273.53,-302.11,-452.0,-441.68,-216.6
501,-479.32,-409.25,-338.39,-464.48,-492.47,-438.46,-443.09,-562.88,-389.49,-385.48,-437.4,-361.28,-335.33,-360.19,-441.71,-272.24,-312.55,-454.5,-447.03,-226.48
502,-473.12,-416.6,-340.49,-467.42,-494.43,-438.68,-444.68,-564.78,-393.8,-388.01,-438.94,-362.63,-341.69,-364.18,-446.15,-278.45,-315.92,-457.78,-447.57,-271.34
503,-471.54,-411.58,-342.0,-468.96,-492.93,-441.27,-444.97,-566.98,-395.85,-388.63,-439.56,-364.94,-343.24,-365.44,-446.58,-275.75,-309.33,-459.85,-447.19,-272.79
504,-474.5,-417.06,-342.8,-472.61,-492.3,-446.39,-446.96,-570.34,-398.1,-391.24,-442.69,-359.51,-343.42,-369.21,-450.99,-278.26,-321.15,-465.33,-452.8,-293.01
505,-466.26,-400.4,-334.13,-464.88,-484.84,-431.78,-436.98,-561.87,-388.77,-383.46,-436.69,-365.17,-330.42,-365.01,-446.93,-273.65,-314.8,-460.84,-447.7,-279.76
506,-469.64,-404.4,-333.18,-463.02,-487.85,-428.65,-432.34,-561.02,-386.5,-383.21,-436.28,-374.6,-335.43,-366.01,-447.15,-272.39,-312.35,-463.51,-447.35,-251.09
507,-476.53,-410.57,-339.09,-466.54,-494.53,-433.41,-436.65,-564.33,-395.75,-387.96,-438.25,-370.51,-336.23,-369.81,-449.36,-273.82,-321.17,-466.49,-449.91,-299.58
508,-464.32,-397.8,-330.6,-457.34,-483.28,-421.9,-426.5,-555.28,-388.97,-379.6,-429.96,-365.08,-328.14,-360.21,-440.66,-268.71,-312.69,-459.5,-443.09,-379.27
509,-460.01,-402.13,-331.75,-457.33,-484.2,-421.32,-426.67,-555.94,-391.3,-380.74,-429.88,-366.47,-332.49,-360.05,-438.16,-266.27,-305.44,-454.45,-441.3,-306.78
510,-466.02,-395.0,-318.38,-448.12,-478.57,-414.63,-419.28,-551.27,-379.14,-368.06,-418.17,-360.47,-319.69,-349.11,-426.73,-255.83,-299.73,-441.62,-432.67,-199.66
511,-453.32,-385.21,-314.62,-447.2,-471.24,-415.32,-420.51,-550.67,-368.87,-362.7,-415.28,-338.44,-313.42,-347.44,-426.2,-251.42,-301.25,-443.16,-432.94,-119.39
512,-445.47,-380.47,-313.35,-446.4,-470.35,-410.97,-419.89,-550.22,-368.84,-361.56,-416.14,-346.22,-319.42,-348.22,-425.78,-253.71,-286.3,-442.64,-433.1,9.33
513,-457.45,-388.51,-315.12,-446.93,-471.31,-407.25,-416.33,-549.55,-374.19,-364.62,-417.86,-354.94,-323.63,-352.06,-429.18,-256.95,-295.18,-448.11,-434.51,31.66
514,-454.61,-415.71,-335.04,-464.45,-490.14,-424.4,-432.95,-566.17,-396.21,-384.77,-435.02,-362.4,-334.95,-373.11,-448.82,-271.88,-312.75,-466.82,-451.67,-67.09
515,-496.25,-423.06,-348.37,-479.38,-505.87,-442.89,-449.25,-578.02,-407.11,-398.45,-447.93,-386.63,-349.98,-386.56,-462.13,-290.68,-331.33,-482.56,-463.28,-82.35
516,-494.72,-409.87,-339.48,-471.12,-497.84,-439.07,-439.93,-568.6,-397.09,-387.26,-437.34,-389.57,-342.95,-378.37,-451.21,-279.91,-320.95,-471.74,-451.38,-10.96
517,-472.55,-401.37,-324.7,-457.63,-483.91,-422.85,-423.73,-556.13,-383.54,-373.84,-423.6,-373.45,-325.7,-367.11,-438.92,-266.15,-309.83,-456.59,-440.01,-15.93
518,-454.9,-393.68,-315.73,-448.84,-472.74,-413.69,-416.43,-550.82,-376.39,-365.08,-416.11,-344.14,-315.9,-358.88,-428.75,-256.52,-304.03,-442.96,-432.75,-58.59
519,-467.53,-401.22,-323.51,-457.53,-479.26,-415.88,-422.88,-558.04,-385.36,-373.05,-423.06,-357.88,-323.01,-368.6,-437.45,-267.72,-307.41,-455.13,-438.78,-19.91
520,-468.52,-407.85,-327.34,-461.84,-483.7,-420.16,-426.98,-561.53,-392.45,-376.9,-424.62,-371.29,-332.34,-371.38,-437.79,-273.25,-306.46,-455.17,-439.19,-35.37
521,-468.7,-400.82,-328.85,-463.94,-483.03,-421.53,-430.67,-564.18,-391.85,-378.72,-426.15,-366.75,-336.68,-374.68,-440.9,-274.1,-312.71,-456.25,-440.82,-50.27
522,-468.09,-401.58,-327.04,-462.65,-479.87,-413.72,-427.13,-561.54,-387.66,-377.24,-423.91,-372.48,-332.82,-373.82,-439.99,-270.82,-314.6,-458.08,-439.29,-55.03
523,-474.39,-405.79,-333.72,-467.95,-484.63,-421.12,-428.77,-567.51,-396.57,-384.5,-428.71,-382.74,-335.27,-381.72,-445.29,-277.84,-304.76,-464.15,-443.35,-36.41
524,-460.81,-412.33,-333.15,-469.16,-479.08,-423.83,-432.74,-569.16,-396.75,-384.37,-430.03,-357.31,-330.55,-383.5,-446.76,-274.77,-310.39,-464.05,-443.57,-99.57
525,-453.22,-403.82,-324.78,-461.69,-471.1,-416.79,-424.11,-561.16,-386.77,-375.96,-423.98,-349.78,-327.17,-379.68,-442.02,-265.46,-315.12,-460.05,-438.34,-116.61
526,-476.69,-391.94,-323.3,-460.83,-468.2,-410.23,-422.93,-562.4,-382.48,-374.3,-424.67,-382.19,-329.98,-380.36,-442.42,-270.21,-307.2,-456.57,-437.7,-39.32
527,-451.63,-385.22,-316.18,-454.29,-457.55,-402.41,-414.8,-555.84,-378.76,-368.23,-418.09,-371.26,-320.74,-375.67,-437.11,-262.89,-307.85,-452.54,-431.9,-53.34
528,-457.68,-399.57,-326.77,-466.34,-469.91,-419.13,-426.74,-565.15,-388.2,-380.03,-429.53,-371.5,-331.95,-388.55,-448.68,-277.01,-316.86,-466.25,-441.74,-64.86
529,-477.81,-405.98,-332.73,-473.23,-477.05,-420.56,-434.4,-572.49,-392.57,-385.83,-435.53,-376.72,-336.63,-393.84,-453.66,-281.89,-320.18,-472.86,-448.24,1.1
530,-458.25,-400.88,-326.15,-467.12,-467.1,-413.56,-426.18,-566.72,-390.57,-378.32,-428.0,-364.26,-330.9,-387.14,-448.24,-275.64,-319.77,-470.04,-442.14,6.55
531,-439.43,-385.97,-316.97,-459.96,-449.83,-404.88,-419.0,-561.36,-376.87,-369.7,-420.88,-340.24,-318.12,-381.16,-441.06,-265.17,-312.58,-461.89,-437.02,-76.56
532,-445.85,-389.89,-320.73,-463.33,-451.93,-407.07,-421.0,-565.04,-379.92,-373.27,-424.33,-362.05,-320.94,-386.97,-447.98,-272.69,-308.44,-466.81,-443.71,-37.06
533,-460.7,-398.65,-327.92,-471.61,-462.44,-413.08,-429.27,-572.87,-392.33,-381.53,-432.37,-378.17,-329.18,-398.21,-458.57,-284.83,-316.21,-478.26,-452.39,34.41
534,-452.53,-385.06,-320.1,-466.78,-451.86,-412.9,-424.15,-568.57,-379.27,-371.68,-424.27,-351.42,-324.28,-387.5,-449.06,-273.37,-321.85,-470.87,-444.44,58.8
535,-424.18,-353.21,-297.66,-447.52,-429.14,-389.71,-406.09,-551.08,-353.23,-348.67,-403.19,-325.85,-303.76,-366.29,-429.96,-249.04,-293.87,-449.89,-428.23,53.86
536,-423.14,-359.72,-293.93,-443.24,-427.1,-388.5,-403.61,-548.7,-352.52,-344.85,-398.46,-337.63,-294.48,-362.08,-426.09,-246.23,-293.88,-440.92,-423.75,103.79
537,-423.2,-371.02,-296.58,-444.98,-430.79,-389.67,-402.83,-550.5,-358.36,-350.66,-403.95,-344.18,-294.08,-369.2,-433.14,-253.94,-295.06,-449.84,-426.85,57.26
538,-411.73,-366.7,-301.32,-450.62,-427.12,-391.78,-405.5,-556.49,-358.03,-354.79,-409.83,-333.74,-300.74,-372.28,-437.63,-252.1,-295.43,-455.2,-432.47,-13.95
539,-436.59,-381.16,-311.79,-459.83,-441.38,-394.55,-413.63,-563.28,-373.1,-364.94,-417.4,-344.83,-315.4,-382.12,-446.16,-264.3,-313.15,-463.54,-437.71,44.35
540,-435.57,-380.84,-309.27,-455.72,-444.78,-396.74,-408.4,-559.27,-372.65,-363.25,-414.72,-350.43,-318.1,-385.27,-445.99,-263.92,-319.66,-464.59,-436.61,63.2
541,-420.93,-372.58,-303.68,-452.61,-436.31,-395.34,-405.95,-557.7,-365.72,-358.06,-410.84,-343.18,-306.22,-377.82,-442.97,-254.65,-299.91,-465.32,-435.92,29.29
542,-443.95,-379.63,-312.12,-461.42,-446.24,-404.21,-412.57,-563.48,-372.89,-366.2,-417.48,-350.96,-316.15,-384.87,-448.6,-264.79,-311.07,-470.45,-438.98,22.73
543,-448.23,-379.07,-308.84,-458.59,-444.48,-399.23,-408.76,-560.27,-371.46,-361.9,-413.08,-364.0,-314.66,-383.55,-444.92,-266.64,-311.56,-465.98,-434.32,25.45
544,-426.53,-371.03,-302.76,-456.23,-439.22,-396.34,-408.86,-560.53,-367.11,-357.77,-410.85,-349.7,-305.69,-380.78,-442.77,-257.37,-305.08,-460.83,-431.85,-67.3
545,-422.21,-373.6,-303.17,-457.25,-439.86,-395.61,-407.54,-560.55,-368.27,-359.81,-411.47,-330.41,-310.46,-382.78,-442.76,-254.33,-306.93,-457.43,-431.03,-143.96
546,-426.5,-381.25,-307.17,-461.48,-444.29,-401.34,-408.25,-561.99,-374.85,-364.6,-415.6,-345.54,-315.34,-389.6,-448.86,-261.57,-308.86,-462.51,-433.22,-112.05
547,-432.61,-375.04,-308.48,-462.4,-440.96,-397.24,-408.05,-562.93,-373.28,-364.5,-417.19,-354.63,-314.76,-392.32,-451.53,-261.25,-311.3,-465.11,-433.74,-117.25
548,-420.13,-371.52,-303.13,-460.61,-434.02,-385.23,-405.2,-561.28,-367.94,-361.79,-416.46,-336.62,-309.92,-393.71,-451.61,-259.51,-316.23,-468.12,-433.52,-145.23
549,-417.47,-359.24,-298.16,-456.32,-427.93,-382.53,-397.73,-557.3,-366.34,-358.47,-412.47,-339.45,-304.56,-389.98,-447.0,-254.2,-310.29,-461.61,-429.11,-146.55
550,-432.02,-368.72,-299.37,-457.94,-431.42,-387.05,-398.6,-557.84,-364.94,-359.75,-413.45,-358.04,-307.08,-391.96,-447.57,-255.63,-305.25,-460.37,-430.57,-112.6
551,-418.29,-366.12,-297.64,-457.4,-427.33,-381.07,-395.0,-555.55,-361.46,-357.91,-412.82,-343.57,-302.81,-391.38,-447.91,-256.52,-311.0,-461.83,-430.29,-133.81
552,-416.19,-365.65,-298.46,-458.66,-425.74,-386.42,-397.66,-558.59,-366.7,-359.92,-414.76,-338.52,-305.6,-392.59,-449.81,-258.97,-303.69,-464.6,-432.2,-121.94
553,-420.59,-368.3,-296.84,-456.77,-425.62,-385.91,-395.44,-553.79,-368.37,-357.06,-411.46,-344.65,-308.55,-390.57,-447.34,-258.44,-305.21,-462.48,-429.85,-93.6
554,-421.2,-371.38,-299.78,-458.24,-423.51,-383.42,-394.38,-555.54,-370.67,-358.06,-413.1,-347.57,-303.55,-392.67,-448.98,-258.67,-308.46,-465.48,-431.52,-100.13
555,-404.92,-358.45,-293.31,-454.11,-409.78,-370.06,-389.58,-555.08,-361.31,-351.76,-406.88,-335.82,-300.48,-384.42,-441.77,-250.12,-300.06,-459.97,-429.24,-125.96
556,-416.84,-362.84,-295.46,-458.48,-419.56,-376.5,-395.45,-558.4,-361.32,-353.81,-409.4,-346.96,-303.57,-387.34,-442.99,-256.42,-298.97,-456.09,-431.33,-62.14
557,-424.07,-373.81,-306.07,-468.79,-430.62,-389.16,-404.84,-569.21,-374.45,-364.77,-417.86,-349.52,-311.94,-398.4,-450.33,-263.24,-309.31,-461.66,-437.91,-74.2
558,-424.95,-373.84,-304.61,-468.29,-431.74,-391.72,-407.41,-569.9,-369.06,-360.75,-415.55,-344.63,-307.66,-394.83,-447.32,-262.86,-304.9,-462.71,-436.38,-119.29
559,-429.35,-364.59,-295.42,-460.77,-424.37,-386.73,-400.67,-562.17,-359.02,-350.17,-407.2,-350.16,-299.25,-386.59,-439.37,-254.98,-305.12,-454.88,-429.25,-84.86
560,-417.69,-363.13,-293.54,-459.48,-418.34,-379.55,-395.5,-559.22,-361.64,-349.7,-405.46,-352.02,-298.92,-388.59,-439.84,-254.61,-299.86,-456.56,-428.58,-85.72
561,-426.19,-371.58,-303.61,-468.96,-430.2,-388.85,-404.87,-567.1,-371.65,-358.6,-413.76,-355.36,-310.86,-395.08,-447.83,-263.57,-299.28,-464.23,-436.36,-98.08
562,-429.98,-377.3,-310.08,-477.11,-434.73,-398.36,-410.04,-574.64,-380.66,-366.87,-421.44,-355.47,-316.37,-402.48,-453.96,-269.27,-307.46,-470.75,-441.87,-50.24
563,-416.07,-373.02,-310.43,-476.23,-428.04,-392.26,-409.74,-573.74,-379.84,-365.31,-420.59,-350.33,-315.08,-402.08,-452.23,-266.42,-307.75,-468.71,-440.56,6.85
564,-409.57,-369.27,-296.5,-463.65,-417.8,-379.98,-398.55,-561.6,-365.68,-352.38,-405.16,-342.9,-305.08,-388.79,-438.08,-252.21,-296.5,-452.79,-428.1,-19.65
565,-409.48,-364.81,-289.71,-457.83,-411.16,-372.62,-390.04,-555.89,-359.21,-345.81,-399.61,-344.99,-291.36,-384.24,-432.25,-250.27,-288.96,-445.25,-422.55,-13.76
566,-424.16,-365.26,-296.35,-463.91,-414.2,-377.11,-393.84,-562.63,-361.87,-352.36,-407.43,-358.9,-299.59,-392.61,-437.71,-259.88,-296.73,-450.11,-427.68,69.39
567,-418.95,-361.94,-294.54,-463.36,-413.09,-377.91,-390.14,-560.48,-361.12,-351.83,-406.76,-348.38,-298.29,-393.43,-438.02,-256.8,-292.85,-453.8,-428.11,69.99
568,-405.45,-357.29,-290.6,-461.77,-407.73,-371.99,-388.46,-558.45,-354.53,-347.16,-404.57,-343.86,-295.63,-394.5,-438.14,-254.47,-299.76,-456.73,-427.75,35.29
569,-400.94,-360.75,-295.41,-468.61,-411.11,-379.23,-395.48,-566.28,-359.26,-351.08,-407.21,-345.34,-299.29,-398.18,-441.97,-258.49,-301.35,-456.65,-431.89,62.16
570,-412.25,-364.94,-305.66,-479.52,-418.9,-392.72,-408.12,-578.57,-366.95,-358.27,-415.9,-356.47,-306.65,-404.29,-447.87,-264.29,-297.58,-459.52,-437.97,139.16
571,-399.82,-370.18,-301.89,-475.85,-416.19,-390.92,-406.05,-575.07,-364.91,-353.17,-413.83,-347.73,-294.63,-401.53,-444.39,-259.07,-292.11,-458.58,-435.4,107.99
572,-411.05,-365.4,-297.9,-473.2,-411.91,-381.44,-403.05,-570.38,-363.82,-352.1,-411.71,-340.16,-291.6,-402.24,-444.64,-258.65,-294.26,-457.35,-433.06,132.09
573,-419.97,-361.4,-297.24,-472.7,-412.77,-380.21,-398.18,-569.4,-361.63,-352.71,-412.01,-345.92,-297.54,-406.55,-447.04,-259.62,-297.81,-458.93,-432.34,215.11
574,-387.8,-354.14,-291.15,-466.44,-406.65,-374.1,-393.4,-564.05,-356.59,-346.63,-404.86,-334.11,-290.18,-401.12,-440.94,-252.44,-294.56,-453.65,-426.9,187.11
575,-400.19,-351.76,-293.16,-469.18,-408.9,-377.48,-396.21,-566.55,-358.67,-350.31,-408.62,-337.42,-297.3,-407.48,-445.16,-257.43,-297.47,-458.26,-429.93,171.82
576,-412.8,-367.35,-293.01,-469.32,-409.35,-377.61,-395.02,-568.08,-367.42,-351.38,-409.11,-355.05,-301.63,-409.16,-447.06,-261.74,-304.15,-459.7,-430.21,206.24
577,-394.71,-341.8,-288.43,-466.48,-403.5,-373.46,-391.44,-564.79,-358.64,-345.85,-405.68,-348.24,-295.95,-406.85,-445.69,-256.52,-297.97,-458.92,-428.92,164.21
578,-381.59,-354.24,-294.93,-473.15,-398.88,-380.95,-397.71,-571.17,-362.2,-351.83,-412.69,-320.49,-294.99,-413.87,-453.08,-257.18,-297.45,-465.91,-432.96,127.9
579,-421.83,-369.1,-301.86,-481.92,-411.14,-385.51,-406.7,-579.64,-369.35,-358.57,-419.24,-359.33,-301.73,-418.0,-455.22,-265.5,-305.51,-468.78,-435.37,178.84
580,-417.24,-358.34,-297.24,-478.28,-414.58,-384.47,-405.37,-576.85,-362.4,-353.33,-415.0,-368.94,-300.25,-414.06,-450.69,-263.83,-302.52,-462.73,-433.1,164.33
581,-407.97,-361.3,-298.68,-478.72,-415.1,-390.29,-407.39,-578.01,-362.72,-353.14,-413.85,-353.79,-299.36,-415.3,-450.25,-263.58,-300.75,-464.02,-433.84,98.49
582,-409.35,-359.18,-297.41,-481.61,-413.95,-387.05,-409.16,-580.44,-364.65,-355.45,-416.42,-348.14,-298.4,-417.09,-451.63,-258.32,-302.9,-466.45,-435.18,105.96
583,-408.0,-363.84,-302.97,-485.98,-422.01,-393.95,-414.95,-584.74,-371.67,-359.81,-418.88,-360.51,-304.4,-422.5,-454.54,-263.37,-305.68,-467.06,-437.21,158.07
584,-386.96,-348.66,-290.38,-471.8,-404.7,-376.96,-399.66,-571.12,-360.23,-345.88,-404.6,-344.05,-288.33,-411.24,-441.8,-246.92,-293.98,-457.59,-425.98,114.23
585,-396.92,-343.2,-273.25,-456.86,-393.19,-356.21,-382.31,-556.8,-343.28,-331.67,-390.16,-342.16,-274.43,-401.05,-428.93,-235.74,-277.96,-441.75,-414.27,46.61
586,-399.53,-349.07,-278.93,-462.83,-402.05,-367.85,-388.04,-563.3,-352.45,-337.89,-394.64,-353.46,-284.9,-409.36,-433.35,-247.38,-287.44,-443.8,-418.21,48.33
587,-411.85,-352.59,-290.1,-474.48,-412.6,-374.31,-397.84,-574.51,-364.54,-349.63,-407.35,-360.59,-289.53,-422.42,-445.47,-253.77,-292.63,-456.39,-429.08,54.57
588,-406.44,-345.71,-283.44,-468.65,-405.55,-365.27,-389.76,-568.97,-355.25,-341.84,-402.94,-350.45,-286.37,-418.72,-440.29,-249.25,-284.15,-450.99,-424.35,2.24
589,-407.98,-367.41,-289.08,-473.72,-413.66,-377.99,-399.0,-573.74,-364.8,-348.56,-409.09,-365.99,-299.5,-429.76,-447.0,-257.45,-298.29,-460.42,-428.85,22.84
590,-410.76,-365.47,-295.26,-477.86,-418.82,-380.43,-400.69,-575.73,-374.33,-354.92,-413.13,-372.67,-302.3,-439.96,-450.33,-262.41,-298.84,-459.02,-430.56,28.77
591,-413.86,-365.83,-292.71,-476.48,-418.67,-377.38,-397.7,-572.56,-370.19,-352.61,-409.65,-357.84,-299.13,-439.42,-446.8,-260.06,-297.33,-456.39,-426.49,17.65
592,-412.86,-358.78,-289.69,-473.83,-411.55,-370.28,-393.82,-570.17,-365.33,-349.9,-405.34,-355.81,-298.8,-439.71,-443.85,-256.56,-292.04,-454.83,-422.78,55.22
593,-414.09,-349.22,-286.05,-470.42,-407.13,-369.54,-392.11,-568.84,-361.84,-346.59,-402.8,-371.27,-297.3,-438.32,-439.83,-254.42,-286.17,-450.74,-421.82,121.68
594,-419.87,-358.72,-285.63,-473.33,-405.42,-373.41,-395.85,-572.11,-360.33,-347.67,-404.64,-383.91,-293.84,-442.78,-442.39,-258.59,-296.14,-452.56,-424.33,76.11
595,-402.41,-358.14,-291.48,-478.7,-406.8,-375.82,-398.62,-575.94,-367.71,-353.05,-409.31,-379.52,-294.69,-451.82,-446.03,-264.51,-301.84,-454.84,-425.79,21.51
596,-408.98,-359.07,-290.85,-476.6,-406.01,-372.23,-395.48,-572.54,-371.09,-351.81,-406.4,-383.91,-303.95,-451.15,-444.98,-266.3,-298.93,-456.18,-422.36,60.06
597,-419.96,-355.37,-286.04,-472.92,-403.53,-367.73,-392.38,-569.74,-365.76,-345.45,-400.82,-377.02,-298.44,-444.42,-437.06,-261.47,-289.7,-449.0,-418.88,51.82
598,-412.37,-349.51,-286.33,-475.2,-403.77,-372.84,-396.73,-573.02,-359.52,-344.15,-401.87,-362.55,-293.02,-443.66,-434.67,-257.58,-289.08,-446.38,-419.0,24.1
599,-405.78,-356.84,-287.02,-475.04,-404.13,-375.66,-397.28,-572.54,-360.74,-343.15,-400.41,-359.72,-291.7,-445.95,-435.56,-258.2,-288.31,-448.37,-417.75,66.6
600,-413.69,-364.29,-292.41,-481.79,-410.66,-379.34,-400.71,-575.0,-368.18,-350.3,-405.72,-370.87,-301.0,-455.27,-442.51,-267.07,-290.18,-456.81,-421.27,75.15
601,-407.84,-358.99,-291.07,-479.56,-406.76,-370.6,-398.53,-575.45,-365.76,-347.76,-403.54,-354.43,-294.81,-455.28,-440.74,-262.15,-298.1,-455.54,-421.47,7.45
602,-383.2,-355.22,-294.96,-481.16,-398.94,-374.28,-396.89,-575.04,-370.8,-351.07,-405.87,-364.55,-296.96,-459.1,-441.57,-265.06,-298.66,-454.2,-420.76,35.18
603,-420.44,-369.11,-301.0,-489.82,-413.79,-380.68,-404.99,-580.64,-380.59,-359.37,-411.37,-382.68,-307.33,-465.06,-445.54,-275.68,-300.13,-456.32,-424.34,99.0
604,-434.79,-368.2,-299.73,-491.24,-420.0,-384.9,-407.91,-584.65,-377.0,-357.34,-412.35,-396.13,-309.35,-467.68,-447.67,-276.52,-300.95,-458.7,-426.96,68.06
605,-407.8,-363.0,-293.76,-487.16,-410.75,-383.2,-402.76,-580.13,-370.45,-352.16,-407.36,-376.42,-299.49,-463.42,-443.71,-269.86,-296.42,-459.7,-426.02,26.3
606,-424.73,-365.73,-297.35,-490.85,-414.2,-384.54,-405.98,-584.2,-379.83,-354.79,-410.19,-380.23,-306.48,-467.52,-448.29,-273.37,-308.74,-464.48,-430.07,91.56
607,-412.07,-361.05,-290.39,-482.32,-406.76,-376.56,-399.94,-576.71,-370.49,-346.38,-401.37,-368.19,-295.11,-460.35,-438.37,-263.77,-292.95,-454.62,-420.39,54.24
608,-380.01,-338.87,-276.24,-469.84,-385.93,-359.16,-385.71,-563.9,-351.25,-331.61,-387.71,-351.08,-280.77,-445.62,-423.64,-249.69,-278.94,-437.74,-406.72,2.98
609,-385.05,-339.51,-282.37,-475.95,-386.46,-371.22,-391.7,-569.44,-358.14,-336.75,-392.71,-357.11,-287.84,-451.23,-425.98,-255.24,-275.84,-435.73,-409.81,33.26
610,-411.06,-353.54,-289.57,-482.76,-395.44,-368.57,-398.45,-575.32,-363.35,-341.9,-398.02,-369.24,-290.48,-457.83,-431.0,-258.42,-287.69,-442.51,-415.25,80.8
611,-399.2,-350.57,-287.73,-485.28,-397.71,-372.25,-400.47,-578.39,-358.87,-342.59,-398.87,-359.13,-289.93,-460.45,-431.15,-260.2,-288.28,-442.65,-416.27,20.76
612,-403.52,-355.65,-292.82,-492.63,-402.87,-381.77,-405.4,-583.66,-365.73,-349.45,-405.2,-362.94,-296.46,-466.71,-435.72,-266.84,-285.73,-445.9,-419.19,9.74
613,-407.38,-353.68,-290.9,-488.2,-397.17,-371.38,-399.43,-580.08,-364.95,-346.62,-402.42,-373.91,-295.66,-463.97,-433.76,-267.04,-292.29,-444.72,-415.29,37.33
614,-397.07,-345.79,-285.65,-484.57,-396.78,-368.89,-395.65,-576.84,-359.25,-342.08,-397.55,-366.95,-288.73,-459.96,-428.92,-263.1,-281.51,-439.57,-410.5,-14.37
615,-399.47,-355.16,-293.35,-491.92,-403.68,-380.18,-404.5,-583.86,-367.73,-348.56,-403.6,-367.17,-291.67,-463.82,-433.66,-266.01,-286.61,-442.91,-413.6,-51.82
616,-413.68,-368.56,-304.11,-501.1,-413.11,-387.79,-413.91,-591.5,-381.0,-360.25,-414.81,-388.84,-307.1,-476.31,-445.27,-279.22,-298.29,-454.74,-421.48,-33.33
617,-413.95,-360.0,-295.33,-493.86,-405.39,-376.83,-403.86,-583.3,-373.01,-353.02,-407.14,-383.92,-303.17,-472.73,-440.29,-275.33,-292.51,-454.18,-414.7,-49.86
618,-396.28,-346.01,-287.24,-486.79,-392.46,-374.56,-396.84,-578.19,-361.11,-343.31,-398.21,-356.93,-293.19,-463.77,-431.04,-265.99,-292.47,-446.35,-406.85,-90.11
619,-377.79,-350.46,-282.51,-482.99,-383.86,-361.41,-392.58,-575.13,-362.88,-339.92,-392.51,-346.84,-290.03,-461.59,-427.22,-261.38,-285.2,-443.06,-403.76,-76.72
620,-396.36,-345.07,-280.13,-482.14,-388.03,-367.2,-395.23,-575.01,-361.59,-338.62,-391.42,-363.94,-292.62,-459.62,-426.3,-264.73,-285.55,-439.71,-400.4,-60.35
621,-394.42,-337.87,-277.47,-479.36,-382.26,-365.08,-390.65,-570.41,-350.78,-333.29,-388.93,-355.56,-287.64,-453.87,-422.53,-258.7,-276.22,-435.8,-396.87,-109.43
622,-378.25,-331.85,-271.93,-474.06,-375.42,-355.23,-385.34,-568.22,-347.94,-328.47,-383.61,-344.17,-276.82,-449.45,-414.67,-252.06,-273.28,-426.25,-393.74,-91.82
623,-386.34,-341.76,-274.91,-476.84,-376.85,-359.52,-386.49,-570.19,-354.32,-332.27,-386.1,-365.56,-280.31,-454.99,-418.54,-255.99,-278.02,-428.24,-395.66,-46.8
624,-391.55,-337.9,-280.71,-482.91,-381.02,-365.46,-394.52,-576.61,-356.59,-337.52,-391.1,-366.62,-289.7,-461.53,-425.57,-265.42,-279.29,-437.61,-401.64,-75.43
625,-369.3,-328.72,-274.57,-478.29,-367.43,-361.99,-387.43,-571.25,-350.5,-329.49,-385.77,-336.72,-283.76,-456.88,-422.64,-254.05,-276.33,-437.52,-398.69,-89.18
626,-368.63,-339.7,-275.69,-480.34,-375.66,-365.87,-391.92,-573.3,-360.19,-333.23,-387.8,-354.24,-285.74,-460.7,-425.13,-258.96,-284.03,-438.75,-400.81,-16.32
627,-415.42,-349.38,-284.15,-487.97,-397.5,-376.44,-402.39,-580.56,-362.31,-339.2,-393.23,-382.28,-296.31,-466.19,-428.7,-273.19,-290.68,-438.16,-402.72,27.95
628,-405.18,-346.75,-280.01,-485.18,-393.0,-372.75,-399.06,-577.75,-352.35,-333.23,-389.55,-365.16,-284.19,-459.28,-422.24,-260.11,-273.15,-430.0,-399.26,-37.0
629,-386.82,-330.02,-272.12,-478.24,-384.09,-359.36,-387.91,-571.02,-348.4,-326.55,-383.35,-357.83,-276.35,-454.28,-416.45,-249.01,-274.95,-427.33,-394.93,-11.76
630,-395.07,-349.41,-282.4,-488.68,-393.53,-369.18,-398.3,-580.21,-362.17,-338.8,-393.89,-374.12,-287.17,-468.07,-427.38,-259.07,-282.99,-438.02,-401.64,17.35
631,-397.82,-350.13,-283.69,-489.01,-393.64,-373.45,-399.02,-579.35,-362.76,-338.23,-392.74,-360.31,-286.99,-466.12,-424.44,-258.68,-275.45,-434.74,-400.08,-8.55
632,-399.09,-350.28,-287.0,-491.05,-397.45,-374.15,-399.25,-580.11,-364.57,-339.65,-394.7,-350.36,-289.65,-465.82,-423.89,-261.32,-279.21,-431.8,-399.07,15.39
633,-414.22,-359.14,-292.07,-496.71,-408.09,-380.99,-406.06,-585.73,-370.39,-345.1,-398.2,-387.41,-295.63,-470.76,-426.63,-267.01,-281.0,-433.18,-402.1,81.25
634,-410.09,-358.88,-293.82,-499.4,-406.48,-384.68,-406.93,-587.9,-371.81,-345.96,-399.2,-386.73,-296.46,-471.24,-426.77,-267.71,-285.68,-432.79,-402.01,47.91
635,-416.12,-355.28,-294.57,-500.48,-409.95,-381.26,-406.16,-587.01,-373.29,-346.33,-400.02,-376.03,-293.94,-472.13,-426.87,-266.28,-284.31,-433.81,-401.99,-4.62
636,-416.11,-372.37,-294.77,-501.73,-413.2,-378.47,-405.17,-587.26,-377.78,-347.92,-401.09,-393.8,-298.84,-474.7,-428.03,-269.82,-283.59,-436.23,-400.16,35.97
637,-418.42,-359.3,-292.74,-498.91,-411.35,-376.3,-400.01,-584.02,-375.85,-345.39,-397.72,-389.5,-294.85,-472.35,-423.75,-265.61,-273.48,-428.74,-394.34,24.37
638,-418.28,-357.69,-294.23,-500.52,-414.31,-377.55,-401.18,-584.62,-375.15,-347.32,-398.67,-388.75,-297.12,-475.12,-425.93,-269.67,-281.02,-431.55,-395.45,-12.52
639,-413.52,-364.37,-293.66,-501.44,-413.24,-379.99,-403.65,-586.0,-376.38,-345.66,-398.19,-389.69,-301.06,-474.09,-425.43,-269.83,-282.29,-429.91,-394.9,5.56
640,-421.2,-367.77,-294.86,-502.97,-415.56,-382.53,-406.56,-587.7,-380.04,-347.23,-400.25,-396.29,-298.9,-477.54,-427.89,-273.58,-280.1,-432.69,-397.35,-0.7
641,-425.93,-365.08,-296.93,-505.62,-416.64,-386.85,-407.34,-589.82,-378.78,-349.9,-402.86,-389.16,-298.98,-481.34,-429.1,-277.46,-285.09,-434.8,-397.69,-39.04
642,-422.87,-356.49,-291.61,-500.85,-410.92,-376.45,-403.26,-585.55,-374.17,-344.86,-397.69,-388.25,-300.37,-477.75,-425.31,-272.56,-279.78,-429.93,-393.94,-24.59
643,-423.07,-354.72,-289.82,-498.68,-404.6,-369.44,-396.42,-580.44,-375.74,-343.67,-396.09,-391.48,-296.25,-477.7,-425.77,-269.69,-284.05,-431.24,-392.81,6.81
644,-413.98,-362.51,-292.31,-502.61,-404.1,-376.82,-400.18,-586.36,-373.36,-345.32,-399.94,-389.84,-294.49,-479.79,-428.96,-269.96,-282.24,-435.0,-397.38,-29.67
645,-412.36,-356.39,-292.57,-505.53,-406.99,-378.91,-403.42,-590.96,-371.93,-346.45,-402.82,-391.29,-295.41,-479.81,-429.4,-268.5,-274.67,-434.08,-399.8,-83.76
646,-430.95,-370.3,-306.92,-519.49,-424.15,-392.27,-418.27,-603.8,-388.28,-359.35,-414.97,-417.56,-307.76,-495.94,-442.72,-286.8,-294.28,-447.28,-410.41,-62.59
647,-437.44,-382.43,-311.07,-522.82,-425.68,-398.4,-422.93,-607.27,-396.13,-362.31,-416.23,-419.49,-320.48,-496.76,-444.31,-295.23,-295.9,-449.28,-410.69,-89.92
648,-424.39,-372.1,-305.01,-517.06,-418.45,-394.65,-417.15,-601.62,-387.79,-355.71,-409.15,-390.99,-312.86,-489.84,-435.93,-285.74,-291.71,-441.11,-404.47,-175.9
649,-415.63,-355.25,-287.22,-502.28,-409.6,-380.88,-402.45,-588.16,-367.75,-337.4,-393.49,-388.26,-288.42,-471.81,-417.62,-266.55,-261.94,-418.08,-389.21,-133.79
650,-403.84,-352.3,-282.54,-498.85,-399.51,-373.87,-397.76,-584.31,-363.36,-331.63,-387.59,-379.98,-277.64,-463.22,-410.87,-256.6,-262.34,-411.48,-384.87,-133.46
651,-406.86,-353.3,-291.72,-508.06,-403.43,-377.83,-405.87,-593.6,-366.15,-339.82,-396.9,-381.93,-289.11,-471.86,-419.31,-268.37,-272.72,-420.98,-393.13,-164.8
652,-417.34,-353.1,-289.18,-505.31,-405.12,-378.33,-400.72,-589.42,-366.78,-336.5,-393.34,-390.81,-292.8,-469.46,-416.31,-268.43,-272.24,-422.75,-390.46,-152.1
653,-415.01,-351.45,-285.95,-500.56,-403.49,-368.87,-395.18,-584.67,-369.35,-334.4,-389.76,-390.94,-290.74,-467.42,-414.45,-265.96,-277.92,-421.93,-387.43,-131.92
654,-397.9,-342.06,-283.89,-499.33,-396.2,-370.91,-394.24,-582.02,-364.85,-330.78,-387.07,-384.99,-282.84,-463.25,-410.13,-265.08,-259.44,-417.07,-385.12,-172.52
655,-405.41,-353.61,-285.01,-500.78,-399.94,-369.8,-396.0,-583.43,-365.43,-332.11,-385.76,-379.82,-285.77,-462.98,-408.73,-267.08,-256.06,-411.86,-383.0,-189.06
656,-424.38,-367.28,-303.16,-518.91,-422.44,-386.55,-415.36,-601.26,-382.55,-348.98,-402.52,-409.07,-304.72,-480.24,-425.77,-286.49,-276.0,-426.92,-396.83,-144.57
657,-436.43,-382.79,-309.8,-525.71,-429.39,-402.56,-421.34,-607.83,-391.45,-356.65,-409.25,-410.77,-315.04,-488.37,-432.77,-294.35,-288.71,-438.15,-402.15,-159.81
658,-433.57,-379.63,-303.6,-516.21,-424.68,-393.83,-409.98,-597.04,-387.22,-350.19,-401.86,-392.47,-314.44,-484.96,-428.8,-292.73,-289.55,-438.32,-393.89,-234.33
659,-429.12,-355.27,-289.45,-505.2,-414.53,-377.7,-400.99,-587.84,-372.08,-338.15,-390.47,-400.46,-298.91,-473.91,-415.0,-280.87,-274.45,-421.97,-381.0,-235.32
660,-411.15,-349.81,-279.43,-495.74,-397.67,-367.95,-391.43,-578.71,-364.38,-327.32,-379.36,-397.1,-286.25,-462.6,-403.53,-267.01,-260.2,-405.59,-372.19,-241.77
661,-408.0,-348.71,-282.28,-499.01,-401.47,-371.73,-392.78,-581.67,-365.13,-330.8,-381.23,-383.73,-284.36,-466.4,-405.08,-266.99,-258.88,-406.11,-374.35,-226.94
662,-405.25,-347.18,-285.34,-501.12,-404.16,-374.36,-396.49,-583.92,-365.01,-330.79,-382.16,-388.48,-284.75,-464.56,-404.12,-266.08,-257.55,-402.58,-373.43,-91.18
663,-402.68,-346.96,-281.41,-496.26,-394.09,-368.96,-391.74,-577.8,-358.36,-325.05,-377.75,-379.08,-279.92,-460.52,-398.97,-258.76,-256.97,-399.3,-369.44,-12.34
664,-406.23,-348.77,-282.82,-497.13,-395.8,-365.1,-390.51,-577.82,-359.67,-327.14,-378.94,-368.17,-280.71,-461.87,-401.77,-261.35,-249.52,-404.73,-371.54,-62.42
665,-408.86,-349.29,-290.38,-504.54,-402.35,-377.55,-397.4,-582.43,-365.76,-332.51,-383.46,-382.57,-286.4,-465.68,-406.01,-271.96,-256.45,-409.47,-372.84,-113.85
666,-422.45,-358.8,-289.96,-505.38,-405.93,-376.26,-397.83,-582.54,-371.97,-335.74,-386.68,-396.44,-292.18,-470.13,-409.97,-277.54,-263.86,-415.08,-373.86,-99.71
667,-428.61,-365.61,-291.86,-508.93,-407.9,-373.47,-402.45,-584.99,-373.32,-336.88,-387.38,-405.17,-295.53,-471.42,-411.98,-280.05,-263.41,-413.6,-374.48,-121.67
668,-418.11,-361.91,-293.21,-510.5,-410.17,-379.44,-402.84,-585.86,-373.75,-338.05,-388.27,-399.69,-295.88,-472.57,-412.6,-283.68,-277.38,-413.23,-373.97,-200.44
669,-424.3,-365.66,-294.18,-513.75,-416.51,-383.59,-405.99,-589.41,-376.17,-340.25,-391.02,-407.03,-298.22,-473.79,-414.1,-287.51,-275.65,-415.39,-373.47,-202.76
670,-430.97,-363.86,-295.02,-514.23,-416.86,-378.93,-403.93,-588.35,-375.93,-341.27,-391.79,-404.46,-300.08,-473.2,-415.22,-284.97,-269.94,-418.67,-374.41,-187.35
671,-412.47,-353.05,-286.47,-506.65,-408.04,-369.69,-392.91,-581.95,-366.27,-333.33,-385.21,-373.32,-288.52,-465.24,-408.5,-273.08,-268.19,-414.25,-370.17,-236.16
672,-423.69,-348.73,-290.6,-511.85,-407.65,-374.6,-398.58,-585.5,-368.94,-336.24,-388.14,-390.67,-286.21,-468.15,-410.42,-276.47,-275.6,-413.09,-370.47,-235.75
673,-417.61,-360.7,-290.37,-509.91,-404.13,-375.73,-396.37,-583.35,-368.94,-334.63,-386.05,-403.99,-287.46,-468.84,-409.5,-278.04,-267.7,-412.64,-367.72,-213.55
674,-412.53,-352.46,-282.01,-504.15,-403.87,-364.4,-391.92,-580.76,-363.73,-328.44,-380.65,-387.1,-285.43,-462.33,-405.34,-275.89,-259.28,-409.79,-365.6,-257.0
675,-417.86,-355.87,-286.48,-507.79,-407.58,-368.16,-396.49,-584.24,-368.62,-331.65,-383.48,-396.5,-290.06,-467.79,-408.62,-284.5,-272.99,-413.21,-368.07,-303.93
676,-427.06,-359.35,-285.5,-507.17,-408.46,-367.5,-393.66,-581.98,-370.17,-332.9,-384.38,-411.8,-297.72,-469.76,-411.29,-289.57,-273.51,-416.39,-368.59,-268.66
677,-426.52,-351.57,-285.13,-507.5,-407.21,-368.17,-393.44,-582.52,-367.39,-331.43,-383.74,-401.51,-297.32,-469.48,-411.85,-290.19,-269.42,-418.17,-371.93,-268.45
678,-420.08,-352.9,-281.19,-505.7,-407.78,-367.98,-390.56,-581.82,-357.87,-326.89,-380.33,-391.96,-286.16,-464.53,-408.41,-278.37,-266.22,-416.16,-371.89,-302.7
679,-424.49,-357.18,-289.54,-513.0,-415.64,-372.61,-399.6,-588.17,-368.04,-334.11,-387.4,-406.85,-292.64,-471.56,-413.82,-283.73,-272.31,-417.74,-375.28,-250.23
680,-417.78,-366.24,-292.71,-517.31,-420.76,-376.32,-403.16,-591.47,-374.89,-338.93,-390.46,-414.57,-298.98,-478.14,-420.33,-293.79,-281.41,-422.66,-379.84,-217.03
681,-433.93,-367.73,-287.42,-512.87,-415.59,-380.6,-398.93,-585.85,-365.68,-335.23,-386.52,-400.11,-295.82,-475.69,-419.33,-291.55,-280.46,-423.55,-375.55,-211.45
682,-421.38,-357.52,-285.35,-511.76,-411.86,-374.94,-398.15,-583.27,-361.64,-332.29,-384.28,-405.47,-287.87,-473.66,-415.99,-288.87,-282.95,-421.75,-371.3,-132.72
683,-434.65,-371.46,-295.66,-519.32,-423.12,-382.9,-405.05,-589.94,-383.61,-342.64,-390.51,-400.96,-296.05,-481.42,-420.04,-301.09,-282.5,-420.73,-374.72,-91.36
684,-426.18,-358.39,-283.21,-505.31,-413.54,-365.38,-389.41,-576.38,-370.53,-330.5,-376.48,-387.61,-288.78,-467.31,-405.81,-282.78,-267.75,-407.4,-362.15,-130.97
685,-417.65,-347.43,-268.52,-493.83,-399.52,-355.74,-378.7,-567.19,-350.43,-317.31,-366.88,-403.92,-278.51,-457.16,-397.56,-274.69,-265.33,-399.5,-354.86,-152.24
686,-427.16,-353.93,-272.54,-498.77,-406.67,-360.13,-380.79,-571.1,-359.59,-322.59,-370.6,-405.99,-289.64,-463.94,-401.68,-287.63,-270.44,-398.98,-355.95,-135.02
687,-418.99,-358.24,-276.5,-503.2,-416.23,-368.62,-387.63,-578.49,-359.25,-324.74,-375.17,-404.3,-287.76,-466.98,-405.98,-284.32,-268.39,-403.9,-360.32,-168.54
688,-421.84,-352.61,-274.65,-501.99,-419.09,-356.64,-384.9,-577.08,-359.28,-324.33,-374.73,-401.39,-282.18,-466.54,-406.61,-286.05,-276.49,-408.56,-361.39,-192.52
689,-404.84,-341.38,-266.11,-493.84,-403.22,-360.16,-377.09,-568.93,-353.71,-317.7,-367.23,-400.36,-281.75,-461.25,-400.72,-285.23,-275.03,-403.72,-355.38,-173.64
690,-420.99,-354.19,-263.15,-490.89,-396.49,-354.91,-374.63,-568.2,-351.27,-316.38,-366.75,-395.61,-277.98,-461.3,-401.95,-284.43,-262.22,-405.94,-357.79,-187.8
691,-414.07,-347.57,-268.52,-495.23,-405.0,-358.85,-377.17,-572.28,-352.01,-319.9,-369.76,-392.8,-279.94,-462.96,-405.09,-285.36,-268.18,-406.77,-360.59,-228.68
692,-418.21,-348.01,-271.49,-497.91,-400.93,-350.1,-376.42,-575.03,-359.17,-324.18,-373.23,-403.4,-287.22,-469.74,-408.66,-284.85,-275.9,-409.63,-362.41,-218.92
693,-430.43,-361.16,-276.13,-503.02,-407.98,-358.65,-383.97,-578.46,-363.96,-327.48,-375.72,-404.15,-281.34,-473.03,-411.33,-285.7,-274.88,-410.23,-365.74,-192.16
694,-420.21,-356.69,-277.56,-504.61,-410.25,-362.1,-383.94,-580.12,-368.58,-331.1,-379.24,-397.79,-289.91,-476.39,-413.79,-296.2,-278.86,-412.09,-367.86,-227.04
695,-416.81,-362.51,-276.33,-503.48,-413.0,-360.59,-381.4,-581.28,-367.89,-331.55,-379.54,-403.69,-288.45,-477.43,-413.35,-294.98,-281.56,-413.19,-366.27,-246.15
696,-420.28,-354.26,-265.49,-493.37,-400.39,-348.37,-374.33,-574.98,-354.87,-320.02,-369.81,-415.7,-280.01,-467.48,-405.99,-290.83,-275.47,-407.17,-358.85,-253.83
697,-420.68,-341.01,-258.24,-487.7,-390.3,-340.78,-370.32,-569.26,-351.01,-315.71,-362.44,-408.62,-279.25,-465.81,-401.34,-291.87,-278.86,-402.6,-353.37,-274.32
698,-412.6,-344.38,-260.52,-488.96,-396.97,-350.47,-370.21,-567.32,-353.41,-317.35,-361.36,-397.12,-280.72,-466.66,-401.14,-291.05,-273.54,-402.04,-354.49,-297.57
699,-414.57,-352.44,-263.8,-491.3,-397.59,-344.8,-369.66,-569.54,-357.75,-321.48,-365.48,-407.4,-287.25,-470.9,-405.96,-293.44,-280.94,-409.85,-358.79,-239.75
700,-421.0,-354.16,-263.06,-490.03,-395.3,-341.2,-369.47,-569.72,-361.41,-322.27,-366.68,-410.17,-287.76,-471.6,-405.86,-293.07,-276.23,-411.74,-359.41,-234.6
701,-409.38,-342.22,-256.76,-483.83,-393.93,-340.22,-363.69,-564.94,-350.6,-315.41,-360.29,-402.74,-281.39,-465.11,-400.76,-288.76,-273.38,-407.02,-356.11,-294.09
702,-416.01,-356.0,-263.89,-490.09,-403.1,-352.56,-372.69,-571.99,-361.96,-320.13,-367.16,-392.1,-282.66,-471.09,-406.52,-294.42,-274.74,-407.78,-360.16,-258.78
703,-424.4,-351.61,-267.14,-494.23,-403.9,-350.98,-376.59,-575.41,-364.99,-322.47,-370.51,-399.87,-290.44,-472.78,-409.08,-302.05,-274.73,-411.99,-362.78,-210.07
704,-406.42,-345.72,-256.49,-486.79,-396.72,-344.82,-371.03,-571.46,-350.73,-312.92,-362.47,-412.07,-280.11,-464.25,-402.22,-294.15,-278.78,-404.92,-358.28,-244.33
705,-416.15,-356.02,-260.76,-491.31,-403.04,-362.15,-379.25,-576.92,-355.59,-318.74,-366.32,-412.96,-282.27,-469.78,-407.62,-299.8,-278.4,-411.8,-362.23,-264.76
706,-417.2,-340.31,-260.11,-488.43,-394.49,-350.99,-373.05,-572.75,-355.8,-319.83,-363.61,-422.51,-283.34,-469.72,-406.76,-299.17,-285.24,-412.58,-359.4,-205.99
707,-402.91,-349.11,-259.39,-488.0,-397.95,-350.88,-372.07,-572.96,-356.54,-319.5,-363.69,-415.14,-284.95,-470.14,-408.69,-297.64,-283.72,-411.63,-360.05,-190.47
708,-408.11,-349.11,-253.44,-484.01,-394.41,-345.2,-371.39,-570.26,-351.97,-315.6,-359.71,-403.07,-274.07,-466.46,-405.39,-294.07,-280.62,-408.54,-358.38,-206.2
709,-417.7,-357.38,-263.57,-492.83,-411.92,-354.3,-379.39,-580.53,-364.11,-325.56,-369.3,-411.15,-286.29,-478.08,-415.15,-307.34,-295.29,-420.31,-367.58,-142.05
710,-453.5,-386.82,-285.42,-514.19,-436.78,-376.2,-400.71,-600.86,-388.78,-347.61,-390.94,-444.28,-313.94,-502.26,-438.23,-334.75,-312.33,-446.28,-391.46,-78.5
711,-430.58,-361.59,-271.27,-498.28,-400.02,-360.13,-387.09,-585.84,-372.75,-330.47,-372.94,-412.6,-299.64,-485.44,-421.82,-315.84,-300.84,-432.58,-373.49,-98.12
712,-403.27,-342.16,-250.59,-476.4,-384.66,-344.52,-369.35,-565.35,-348.86,-307.59,-349.19,-396.59,-274.66,-464.19,-399.45,-299.74,-278.81,-405.23,-352.15,-60.84
713,-389.96,-329.52,-234.41,-459.54,-374.21,-329.93,-352.21,-550.8,-339.97,-293.38,-333.37,-396.38,-269.29,-447.46,-382.38,-287.55,-260.1,-385.17,-339.64,-7.96
714,-387.12,-336.05,-238.08,-463.25,-381.07,-336.48,-359.09,-555.12,-341.75,-293.69,-334.51,-395.87,-268.24,-446.08,-381.48,-286.63,-260.52,-386.63,-341.42,-45.58
715,-405.55,-344.41,-244.45,-470.57,-391.24,-344.99,-365.67,-561.44,-347.65,-298.9,-338.89,-395.22,-263.46,-449.46,-385.31,-288.23,-270.78,-389.57,-345.94,-37.55
716,-423.37,-358.99,-262.15,-489.39,-405.64,-359.21,-383.21,-580.09,-364.89,-316.71,-358.24,-417.31,-286.73,-468.14,-405.59,-308.94,-288.23,-412.68,-368.1,13.04
717,-433.19,-364.75,-262.4,-490.78,-410.13,-364.84,-385.89,-581.58,-365.47,-317.36,-358.54,-439.93,-290.92,-470.36,-404.97,-316.58,-287.84,-414.44,-365.04,48.93
718,-404.34,-336.78,-238.84,-467.44,-388.01,-342.75,-363.11,-560.64,-343.55,-294.03,-335.55,-395.35,-268.86,-448.86,-379.09,-295.0,-262.89,-392.5,-340.84,18.07
719,-398.4,-331.85,-234.81,-461.42,-379.25,-334.99,-358.38,-552.92,-339.86,-288.86,-327.85,-388.26,-259.53,-438.21,-368.44,-284.81,-254.12,-376.5,-332.16,30.17
720,-393.09,-349.05,-241.8,-465.39,-388.91,-333.88,-362.41,-557.44,-351.92,-294.8,-331.0,-388.08,-261.53,-443.4,-372.47,-288.74,-255.49,-375.53,-336.42,4.57
721,-392.14,-335.01,-235.97,-461.28,-382.02,-335.18,-357.07,-556.27,-342.04,-288.36,-328.16,-388.82,-260.17,-439.47,-370.5,-286.86,-254.27,-377.84,-337.56,-25.37
722,-384.21,-342.95,-235.02,-462.32,-377.19,-337.0,-360.89,-558.13,-337.32,-288.16,-328.54,-392.17,-261.62,-439.35,-373.05,-289.94,-259.11,-383.61,-339.52,-0.67
723,-397.64,-353.97,-244.03,-472.29,-391.54,-351.59,-372.32,-569.56,-351.21,-297.21,-338.67,-397.22,-270.17,-451.78,-383.36,-295.69,-268.07,-392.92,-347.22,9.93
724,-420.6,-350.81,-253.92,-481.11,-401.55,-354.01,-380.78,-577.2,-356.61,-305.2,-347.91,-419.62,-272.14,-461.19,-392.87,-306.11,-282.99,-402.45,-355.06,-10.92
725,-404.12,-348.93,-252.4,-479.1,-388.98,-346.68,-376.66,-574.06,-354.32,-304.22,-345.41,-411.02,-271.08,-460.93,-391.17,-305.73,-284.11,-399.58,-351.69,-42.68
726,-411.78,-344.16,-247.96,-476.64,-385.77,-354.44,-373.72,-571.65,-355.65,-303.2,-343.8,-404.1,-277.43,-460.38,-390.09,-305.11,-278.16,-396.79,-349.84,-4.76
727,-405.09,-352.2,-257.15,-485.64,-395.11,-352.68,-382.3,-579.82,-364.47,-313.89,-352.85,-411.42,-285.03,-469.04,-398.32,-311.39,-279.96,-401.17,-354.7,10.43
728,-405.29,-355.36,-253.46,-482.96,-391.83,-352.34,-380.32,-577.72,-359.42,-310.63,-349.75,-397.67,-282.28,-466.09,-395.31,-309.02,-280.65,-400.89,-354.29,-33.05
729,-406.26,-347.27,-250.82,-477.82,-398.7,-333.42,-372.42,-571.87,-354.98,-305.08,-344.77,-406.88,-282.14,-462.2,-390.72,-311.12,-276.5,-398.05,-350.78,-4.86
730,-401.74,-344.41,-242.91,-470.04,-387.57,-335.14,-365.15,-564.76,-349.01,-296.34,-337.8,-405.39,-268.89,-452.15,-382.56,-298.55,-269.79,-390.59,-341.46,35.3
731,-402.12,-336.53,-236.67,-465.68,-381.21,-352.75,-365.61,-562.46,-340.32,-292.15,-334.09,-389.46,-265.74,-448.76,-378.11,-301.69,-270.24,-384.69,-337.87,-19.16
732,-400.23,-333.8,-239.29,-467.19,-384.81,-352.32,-368.01,-563.3,-342.89,-294.43,-334.4,-397.84,-267.31,-450.39,-379.65,-298.95,-265.54,-382.87,-339.93,0.51
733,-410.27,-357.85,-249.87,-474.96,-414.87,-363.95,-375.25,-568.6,-359.31,-305.37,-342.89,-414.99,-278.89,-460.1,-388.04,-308.54,-277.57,-394.53,-346.75,57.33
734,-414.98,-346.83,-249.52,-474.99,-403.67,-352.03,-378.14,-568.12,-356.77,-305.06,-343.09,-406.92,-275.89,-459.45,-389.98,-306.31,-270.93,-398.33,-349.96,-5.74
735,-391.43,-357.64,-262.37,-488.22,-387.53,-363.09,-390.29,-580.42,-369.23,-316.86,-354.29,-404.26,-288.3,-471.77,-402.87,-321.13,-281.62,-411.45,-358.99,-53.19
736,-423.22,-374.73,-270.42,-494.28,-412.73,-378.65,-396.99,-587.35,-381.42,-325.12,-361.67,-413.42,-304.55,-478.65,-408.1,-326.45,-295.37,-412.89,-362.96,24.07
737,-423.92,-350.1,-257.42,-481.6,-395.93,-361.97,-382.95,-576.6,-363.98,-311.38,-350.14,-407.64,-281.91,-465.49,-396.36,-313.68,-285.82,-401.78,-354.96,12.97
738,-377.53,-333.24,-237.73,-463.93,-381.4,-348.38,-368.12,-561.95,-338.98,-287.98,-330.01,-383.54,-255.39,-442.29,-371.46,-294.43,-256.14,-377.3,-335.92,-36.8
739,-391.97,-334.43,-235.85,-462.59,-378.97,-348.21,-367.4,-560.42,-343.94,-285.06,-329.13,-386.72,-262.63,-439.49,-369.98,-299.7,-259.8,-377.65,-335.05,18.96
740,-393.06,-342.34,-243.78,-467.5,-388.14,-348.63,-373.7,-565.04,-353.79,-292.65,-334.41,-408.15,-274.07,-445.56,-373.18,-307.67,-268.8,-382.45,-332.25,36.78
741,-375.09,-324.26,-227.07,-453.6,-366.19,-336.56,-361.28,-555.07,-330.24,-279.02,-322.67,-370.0,-256.92,-433.55,-361.82,-283.7,-254.2,-373.17,-325.37,-15.36
742,-386.78,-320.41,-229.59,-456.14,-373.86,-340.77,-362.98,-556.01,-332.59,-281.3,-324.55,-378.08,-256.78,-434.33,-361.5,-287.85,-253.33,-371.62,-325.06,-22.13
743,-376.4,-333.26,-236.51,-461.54,-381.35,-338.06,-365.78,-558.17,-341.69,-286.51,-327.52,-404.15,-261.3,-438.32,-363.83,-293.23,-258.05,-367.83,-326.15,-27.98
744,-391.52,-329.91,-239.72,-463.14,-365.61,-337.06,-367.82,-559.15,-348.7,-290.44,-331.68,-388.26,-266.38,-444.3,-369.19,-299.39,-260.46,-376.15,-331.09,-86.28
