,Fp1,F3,C3,P3,F7,T3,T5,O1,Fz,Cz,Pz,Fp2,F4,C4,P4,F8,T4,T6,O2,EKG
0,9.21,-47.46,15.1,8.22,-16.9,-22.99,-25.82,-10.09,28.37,-3.01,-27.3,101.04,35.11,14.54,18.33,28.54,44.09,69.65,30.74,171.68
1,-3.59,-30.29,32.38,10.8,-68.98,-21.6,-15.08,-9.21,26.36,-8.98,-32.28,95.8,26.39,4.82,10.54,20.56,32.06,59.44,23.32,178.28
2,-26.04,-60.07,2.37,-10.15,-34.69,-31.4,-31.92,-26.98,-1.94,-28.77,-49.77,73.45,-3.68,-17.32,-16.15,-8.27,5.33,45.18,9.49,306.74
3,-3.04,-36.25,29.56,14.53,-14.01,-11.9,-14.23,-6.31,26.04,-2.77,-25.03,91.01,22.61,6.9,9.93,15.48,33.58,69.62,31.01,223.26
4,-4.63,-20.16,25.19,1.19,-44.58,-23.51,-30.71,-17.6,25.42,-8.86,-33.96,89.45,19.44,-2.08,6.11,8.38,24.18,55.87,19.91,170.76
5,-21.16,-34.05,19.4,-0.02,-48.96,-8.47,-33.74,-22.16,18.52,-11.3,-35.9,80.91,14.53,-5.42,-0.4,5.43,18.28,51.76,16.58,282.29
6,-10.94,-37.05,9.87,3.02,-28.59,-18.28,-23.94,-15.92,22.04,-5.05,-27.72,92.98,17.45,4.95,6.53,14.7,26.28,62.15,27.21,284.03
7,-0.14,-32.48,23.38,11.53,-25.61,-33.28,-6.87,-5.9,26.4,-3.22,-25.32,95.42,22.01,4.99,10.9,16.47,30.81,59.51,26.38,203.86
8,8.7,-10.47,46.76,20.5,-8.18,-11.45,-7.85,-2.08,35.0,6.19,-16.15,97.34,27.67,14.27,19.73,23.86,36.77,69.2,34.45,251.45
9,0.63,-36.04,18.58,12.62,-6.19,-1.49,-10.12,-8.54,21.12,1.96,-17.73,95.27,19.99,16.47,14.33,23.07,35.09,68.53,34.16,285.68
10,6.32,-28.63,30.69,15.81,-7.99,-2.66,-5.61,-5.04,26.89,3.1,-19.52,96.28,23.74,9.64,12.19,18.82,31.8,62.75,28.96,232.41
11,-10.37,-40.55,30.74,4.25,-44.53,-33.2,-23.96,-15.17,19.82,-7.3,-29.03,88.37,17.75,-0.52,7.16,6.94,22.4,54.65,20.0,212.61
12,-29.51,-59.23,5.19,-3.18,-52.8,-18.31,-26.52,-22.93,4.04,-13.65,-34.68,69.57,7.15,-2.95,0.33,5.71,22.96,58.4,20.47,296.16
13,-8.82,-47.9,8.15,-1.4,-20.06,-18.11,-29.92,-16.28,18.6,-3.56,-22.87,90.54,22.82,12.94,16.19,20.41,40.11,71.55,32.42,227.7
14,-8.58,-24.73,31.76,2.59,-42.92,-10.31,-26.63,-15.63,25.41,-7.18,-28.87,97.5,22.22,3.65,12.07,15.12,31.89,60.22,23.04,191.53
15,-20.96,-59.77,0.96,-12.38,-26.43,-9.42,-30.19,-22.83,5.19,-19.2,-39.29,82.9,8.01,-3.72,1.04,9.54,20.49,56.42,19.38,325.65
16,-16.17,-40.55,4.2,-11.88,-19.83,-12.64,-38.57,-28.49,1.64,-23.81,-45.0,68.13,-1.67,-11.09,-6.5,-0.7,13.53,47.79,12.62,301.34
17,-6.78,-35.38,13.65,-0.74,-43.0,3.52,-22.52,-15.87,16.26,-13.89,-35.85,83.74,15.67,-3.04,8.05,14.06,26.58,57.25,19.55,183.2
18,-1.05,-32.32,33.26,6.41,-32.36,-27.17,-24.49,-13.35,25.17,-2.74,-25.44,91.72,22.54,8.76,15.48,24.64,37.45,68.28,28.4,258.89
19,-14.59,-47.77,20.1,6.19,-25.91,-31.88,-18.83,-21.89,9.42,-10.61,-33.16,75.3,7.57,-2.0,2.08,13.42,23.92,55.98,18.63,297.03
20,-8.99,-33.26,27.0,9.44,-47.53,-26.33,-9.47,-14.1,19.31,-4.65,-27.93,87.59,16.09,2.46,10.1,17.12,28.06,58.37,21.12,233.18
21,10.23,-15.37,38.87,18.91,-13.27,-17.74,-10.04,-1.18,37.24,9.66,-11.48,104.43,36.04,21.27,30.26,34.69,44.51,76.76,39.05,206.6
22,-16.69,-42.09,23.52,7.38,-28.48,-18.06,-21.41,-18.96,9.86,-7.33,-27.18,80.12,10.87,2.12,7.85,15.57,25.61,60.02,24.5,276.43
23,-28.71,-54.41,15.38,3.76,-49.38,-20.07,-22.35,-19.81,1.33,-14.84,-33.44,75.68,4.65,-4.22,2.19,9.99,21.74,52.32,17.56,225.05
24,9.25,-16.96,33.96,13.35,-14.45,-23.37,-16.81,-5.27,28.14,-0.2,-19.32,91.9,28.4,11.01,22.09,28.01,35.8,66.17,31.18,165.55
25,4.46,-24.09,32.03,18.0,-8.64,-15.61,-19.37,-5.81,29.47,10.03,-10.72,98.48,31.54,22.95,28.99,36.14,47.68,76.84,41.26,283.29
26,-0.02,-35.9,34.61,18.32,-10.66,3.14,-20.01,-9.04,27.9,11.18,-11.0,106.71,30.38,24.45,25.68,37.23,45.9,74.74,38.77,272.79
27,5.39,-27.38,25.29,3.28,-31.63,-16.94,-21.86,-16.31,26.33,-1.8,-26.82,96.89,24.25,9.63,18.14,24.8,32.3,55.15,20.86,146.89
28,-7.66,-29.49,24.08,-0.76,-17.67,9.06,-26.88,-17.57,20.13,-6.21,-29.71,88.47,19.82,9.04,17.81,28.04,38.11,64.27,24.45,209.08
29,1.09,-32.64,24.86,11.19,-7.48,-24.13,-7.73,-10.22,18.54,-1.74,-23.11,93.0,20.59,15.04,20.98,31.16,43.03,74.67,32.52,257.23
30,2.46,-41.05,11.82,-4.05,-18.71,-21.64,-25.15,-18.48,16.79,-8.31,-29.48,93.45,21.05,14.14,24.03,36.1,47.15,68.5,27.4,180.58
31,-6.46,-39.9,17.42,-6.15,-31.92,-36.53,-30.89,-19.63,14.54,-11.39,-33.49,90.47,19.87,8.44,21.82,28.33,40.78,62.56,22.96,189.45
32,-6.28,-19.58,33.34,10.99,-26.08,-12.66,-16.84,-14.08,21.76,2.74,-18.8,99.16,26.44,19.66,25.86,35.27,46.67,69.9,32.9,228.29
33,-9.76,-44.07,7.06,-8.48,-23.55,-27.34,-36.17,-26.4,8.33,-11.5,-32.72,77.05,11.36,6.36,13.21,21.38,33.34,55.63,18.74,210.32
34,6.59,-6.07,47.56,22.97,-26.77,-27.54,-2.67,1.02,33.19,6.82,-14.77,98.19,33.89,22.96,33.36,39.76,53.93,71.02,33.56,180.28
35,4.8,-16.62,34.65,17.18,3.92,-3.31,-12.13,-3.62,30.17,7.35,-14.13,106.49,37.17,29.23,36.33,49.64,61.87,80.87,39.76,246.35
36,22.32,-9.08,51.51,32.67,12.15,11.42,-2.59,6.02,40.37,20.77,-0.72,113.78,45.21,40.09,46.35,63.38,72.82,92.48,52.02,250.91
37,-6.12,-35.6,26.17,5.1,-21.39,-6.23,-18.12,-13.94,15.54,-11.82,-33.18,87.75,19.97,8.52,22.13,31.83,46.4,59.3,19.71,170.37
38,-11.92,-37.67,15.96,-5.21,-25.41,14.17,-37.23,-21.71,10.18,-13.78,-34.02,89.35,15.34,9.87,23.11,35.29,47.44,63.83,22.7,246.84
39,-13.93,-42.23,13.05,5.59,-23.19,-21.88,-12.55,-14.46,3.86,-12.07,-29.68,81.72,10.65,11.4,18.04,30.86,42.13,64.25,24.68,328.6
40,-2.16,-34.99,24.11,4.35,-3.59,1.22,-22.0,-17.15,11.17,-12.61,-31.77,80.47,15.86,7.06,20.94,29.06,41.37,58.5,19.53,229.36
41,2.55,-28.64,23.87,-1.73,-20.72,-11.66,-35.05,-20.07,17.93,-7.83,-26.35,95.89,26.1,17.25,31.46,41.15,53.46,65.7,24.86,242.31
42,-6.0,-41.56,17.15,2.32,-30.75,-13.72,-13.24,-16.08,12.14,-6.31,-24.14,92.8,21.3,19.66,27.27,40.01,54.14,68.49,28.0,317.85
43,-7.5,-29.73,33.56,13.86,-28.35,-33.91,-9.66,-15.73,12.52,-6.45,-24.81,90.59,19.2,15.46,23.14,38.29,52.65,62.57,23.73,258.09
44,-11.88,-29.47,30.51,4.66,-19.9,-33.82,-24.96,-23.91,11.42,-13.54,-34.16,85.8,18.68,7.6,18.0,32.97,49.53,52.02,12.59,236.99
45,-2.18,-26.3,29.08,11.35,-12.94,-13.57,-16.59,-13.65,15.77,-3.86,-23.42,90.3,25.35,17.14,24.39,43.6,57.0,65.14,25.58,305.2
46,-6.94,-40.58,21.95,6.4,-22.91,-35.85,-18.21,-17.52,10.78,-5.39,-25.67,96.34,19.0,16.21,18.68,42.01,53.39,63.25,23.1,289.66
47,-9.88,-36.86,25.43,3.29,-16.15,-16.02,-21.3,-19.77,9.5,-14.11,-35.65,79.84,14.25,3.88,13.04,28.96,42.27,52.64,11.97,205.36
48,-7.46,-37.51,16.79,-0.36,-18.95,-1.24,-31.72,-19.49,11.33,-9.55,-30.43,83.59,23.28,13.07,22.44,39.01,53.85,62.99,20.51,265.89
49,-17.9,-49.79,7.26,-1.42,-28.15,-10.37,-23.72,-24.81,-3.15,-16.74,-36.28,74.53,7.31,5.44,11.68,28.61,48.96,57.71,14.57,275.13
50,3.2,-18.14,44.62,16.13,-12.17,-30.34,-13.18,-7.33,23.46,0.13,-21.09,93.58,28.26,19.96,28.97,47.85,63.92,66.92,26.06,126.08
51,14.42,-9.11,58.0,28.3,-8.19,-9.82,-3.65,3.43,38.16,11.46,-9.45,110.17,44.05,34.86,46.91,62.68,85.69,80.57,38.98,69.65
52,14.46,-12.07,43.97,20.21,8.82,-2.2,-9.99,-1.76,30.57,10.57,-10.0,108.82,38.88,36.61,42.62,64.91,83.83,83.98,42.54,80.14
53,-1.47,-38.17,21.85,6.96,-38.12,-7.51,-20.21,-9.08,18.13,-2.16,-21.47,100.52,30.63,24.43,33.96,56.47,74.1,73.13,32.33,33.66
54,-1.36,-21.12,19.79,-0.85,-12.32,-6.41,-25.34,-14.31,14.19,-16.32,-35.07,84.08,22.04,5.96,21.26,38.1,58.61,57.2,17.53,153.81
55,-14.72,-31.59,19.73,-2.15,-32.99,10.55,-27.19,-16.79,1.43,-23.1,-39.89,72.31,11.4,-3.14,9.71,28.68,50.73,52.45,13.76,367.43
56,-21.77,-55.73,2.61,-5.58,-23.71,-28.86,-26.12,-25.2,-10.06,-29.63,-46.95,64.31,-0.51,-8.72,-0.66,23.69,42.27,39.82,2.69,314.82
57,-1.02,-30.95,19.15,4.0,-0.18,-26.46,-12.91,-11.73,5.9,-20.95,-38.97,78.75,9.32,-6.79,6.11,29.13,44.88,42.58,7.35,241.38
58,1.53,-32.18,19.95,13.09,-12.61,-18.97,-10.84,2.05,21.44,-2.63,-19.05,105.52,32.85,18.14,31.34,61.77,81.9,74.88,32.66,267.54
59,-7.42,-39.76,28.23,10.99,-14.18,8.77,-25.96,-12.42,12.0,-7.06,-25.09,93.91,18.55,10.62,17.34,56.91,71.35,69.02,26.09,298.54
60,-11.44,-22.11,44.92,15.71,-37.07,-17.57,-12.16,-8.89,15.66,-10.07,-29.48,89.05,17.19,0.34,10.46,47.28,63.43,56.1,16.21,238.29
61,2.75,-23.64,38.35,16.38,-17.14,-17.53,-8.91,0.38,21.78,-4.89,-23.28,102.41,28.38,8.96,22.0,59.42,75.66,63.63,22.86,268.68
62,-1.37,-28.47,23.41,14.68,-5.61,-5.74,-2.11,-2.12,12.36,-6.0,-24.0,93.41,20.3,10.72,15.3,61.29,74.21,61.74,22.99,308.06
63,-5.55,-30.55,17.41,0.92,-4.77,-16.5,-22.44,-13.09,6.61,-15.71,-33.45,82.61,14.5,1.53,6.97,53.06,69.3,54.0,12.88,251.33
64,7.29,-38.44,23.02,3.77,-12.79,-12.81,-16.75,-5.06,13.58,-13.6,-31.49,85.56,24.85,1.05,13.15,51.29,72.25,57.69,17.05,231.68
65,-1.65,-36.7,15.15,1.29,-9.03,1.7,-20.64,-8.27,9.13,-12.58,-31.25,90.53,21.93,7.27,12.94,55.51,77.05,63.38,19.77,313.28
66,-29.86,-68.83,-9.56,-15.71,-51.09,-31.29,-32.34,-28.53,-18.18,-36.92,-55.59,67.52,-10.09,-18.71,-12.98,23.49,47.28,35.8,-5.09,299.45
67,-13.47,-31.75,27.75,-1.74,-23.78,4.62,-24.55,-17.96,3.43,-25.02,-45.95,71.0,4.09,-12.56,0.73,28.15,55.55,42.72,3.09,240.09
68,3.73,-23.45,29.25,11.16,4.33,-7.05,-9.07,-1.44,20.5,-4.96,-25.9,89.8,28.41,14.09,25.22,55.32,86.54,69.59,26.65,278.48
69,-5.32,-34.82,19.35,2.06,7.04,-21.4,-22.73,-17.11,5.81,-14.19,-34.87,74.85,12.02,2.69,9.32,38.56,71.22,58.58,14.65,320.39
70,-23.0,-36.3,22.26,-4.06,-53.37,-15.54,-26.43,-25.26,-2.24,-27.27,-49.34,58.79,-2.81,-14.85,-6.63,10.27,48.83,35.65,-4.72,250.87
71,-16.55,-29.87,9.7,-14.01,-20.18,9.24,-36.07,-28.68,-1.71,-29.03,-52.13,51.48,1.62,-15.17,-3.57,3.78,45.67,33.68,-6.82,260.3
72,-0.8,-22.2,27.32,10.14,6.92,-13.05,-9.51,-11.52,15.77,-2.22,-25.78,79.74,23.01,12.69,16.96,31.47,69.8,56.62,16.51,315.88
73,-15.25,-38.04,27.32,8.53,-21.78,-33.64,-11.06,-15.79,6.19,-12.93,-35.26,66.16,13.71,0.6,4.42,18.33,53.32,41.74,4.31,248.77
74,14.85,-18.13,42.87,17.32,-3.22,-16.32,-7.15,1.16,30.35,2.71,-20.88,93.49,40.94,19.39,28.16,42.17,80.13,61.64,22.13,208.04
75,2.2,-16.8,32.31,12.33,-9.61,-9.75,-6.08,-4.25,18.22,-4.65,-26.12,86.21,26.54,14.22,17.65,36.18,74.12,59.83,18.56,308.99
76,5.38,-30.62,21.28,6.82,12.49,1.22,-16.76,-10.33,10.66,-8.86,-29.48,84.97,24.25,11.73,14.76,34.28,69.1,58.02,17.3,330.21
77,19.43,-20.15,42.1,13.47,1.91,-5.63,-12.59,-1.98,23.82,-4.43,-25.47,84.64,34.24,14.63,23.73,32.71,70.8,59.33,18.44,226.54
78,-2.9,-16.87,35.22,9.89,-17.88,-5.05,-14.33,-7.12,13.81,-11.57,-31.56,71.94,22.36,4.66,13.3,22.95,59.69,52.39,12.67,258.72
79,-23.25,-50.77,7.74,-4.74,-33.69,-25.39,-23.44,-23.71,-12.42,-30.36,-50.37,54.62,-6.15,-15.93,-11.89,-0.4,33.56,32.95,-5.85,317.25
80,-31.61,-46.07,2.01,-20.24,-38.91,-10.99,-45.12,-36.18,-17.62,-40.88,-61.56,46.13,-15.41,-28.26,-21.78,-17.98,17.8,14.98,-21.41,232.16
81,-23.17,-48.53,4.84,-5.38,-43.17,-16.92,-25.87,-17.4,-2.33,-26.1,-44.27,62.4,5.72,-10.93,-2.01,1.7,38.67,36.02,-1.76,265.15
82,-10.42,-34.17,15.11,2.64,-15.24,-8.81,-33.71,-17.67,2.82,-14.85,-33.03,64.56,11.87,0.4,2.51,14.75,52.36,47.33,9.72,331.08
83,-11.24,-35.22,19.33,5.8,6.12,-4.53,-22.22,-11.6,2.0,-15.71,-30.67,67.21,12.27,0.05,4.24,13.0,50.07,45.07,9.43,247.38
84,-1.09,-26.58,45.23,19.31,-18.67,-28.81,-2.01,0.53,9.56,-15.25,-29.81,70.64,15.34,-3.18,6.7,11.15,45.23,41.68,7.89,205.82
85,-20.49,-43.07,18.35,4.3,-24.14,-21.86,-22.83,-14.98,-10.13,-27.53,-41.45,51.64,-1.19,-12.17,-8.01,1.53,35.44,31.56,-0.71,289.19
86,-11.71,-35.63,29.47,16.68,-0.84,-25.82,-5.69,-5.15,-2.33,-18.7,-32.43,59.91,3.2,-3.86,-4.67,8.16,43.07,37.16,6.22,273.94
87,0.39,-30.87,34.32,18.36,1.98,-18.53,-5.26,2.25,9.24,-14.36,-29.35,70.08,14.48,-0.51,5.45,13.38,45.2,41.09,9.17,213.7
88,3.47,-10.42,45.97,25.49,3.27,-4.23,0.75,5.73,14.94,-6.74,-23.7,73.39,20.37,7.09,11.87,22.26,52.65,48.02,16.14,260.31
89,-5.5,-44.1,12.7,7.55,21.1,6.8,-17.68,-8.45,-4.14,-18.11,-32.25,65.79,8.7,1.56,1.14,17.91,48.58,46.82,13.65,321.62
90,10.7,-19.17,36.73,12.41,-2.49,15.5,-20.91,-2.01,11.48,-10.9,-25.89,80.01,24.75,8.95,13.62,27.39,58.04,54.56,19.75,198.03
91,1.98,-17.56,44.86,19.98,-11.14,-0.3,-0.88,6.01,9.31,-13.6,-28.66,71.42,20.64,2.42,10.67,24.53,50.6,51.38,17.58,217.02
92,-24.55,-58.67,1.07,-6.4,-23.22,14.49,-29.87,-13.46,-15.57,-32.46,-45.62,59.62,2.39,-8.28,-7.93,12.65,38.03,42.62,7.66,279.05
93,-27.91,-45.49,19.73,3.13,-30.94,-21.02,-14.94,-10.42,-13.64,-34.54,-47.06,58.3,-0.38,-15.43,-12.88,7.34,31.55,35.39,0.98,210.47
94,-8.72,-38.89,0.5,-5.62,-19.12,-39.52,-13.81,-8.27,-8.8,-36.85,-50.71,65.21,4.62,-17.69,-11.43,9.57,29.83,32.58,-1.31,208.53
95,-5.92,-35.66,-0.42,-6.72,10.62,-17.41,-29.01,-10.43,-8.09,-29.74,-44.05,68.42,8.39,-9.8,-5.05,13.7,38.63,41.76,7.47,255.19
96,-3.06,-17.96,56.41,34.12,0.14,-18.72,10.32,9.79,8.01,-10.23,-24.7,71.95,18.28,0.86,1.93,26.05,46.99,51.1,18.66,232.88
97,8.59,-11.14,49.68,27.26,-5.09,-12.39,0.47,12.87,18.68,-9.06,-24.56,87.4,32.51,1.95,8.59,34.96,51.39,55.0,20.35,170.22
98,13.02,-8.6,51.99,29.08,2.12,13.13,5.57,18.28,16.09,-10.29,-23.0,85.87,26.84,-0.29,6.32,32.13,52.46,61.12,24.98,192.88
99,-11.74,-27.79,36.63,18.8,-11.07,-19.92,-1.79,1.52,-5.08,-24.18,-36.69,63.09,4.21,-15.62,-15.33,15.98,34.42,43.59,9.1,241.33
100,-7.03,-33.63,23.65,9.8,1.92,-7.76,-9.28,-1.0,-6.08,-30.64,-43.91,63.19,2.55,-24.93,-19.41,8.42,21.94,31.58,-1.74,154.23
101,-10.6,-34.29,23.87,3.82,-9.19,-13.27,-22.37,-5.07,-6.17,-32.16,-45.7,62.72,2.66,-25.26,-18.75,5.97,21.11,30.85,-2.85,108.25
102,-9.18,-25.78,33.91,9.27,2.9,2.47,-16.15,-4.08,-6.14,-25.98,-39.06,54.37,-1.79,-21.05,-20.29,4.24,21.8,38.69,3.76,241.16
103,-2.73,-35.14,23.02,13.95,-13.57,-10.88,-5.98,1.66,-6.1,-24.26,-36.73,53.74,2.76,-20.01,-18.13,6.14,21.94,38.05,4.99,179.45
104,4.61,-25.5,29.31,14.64,3.08,-0.04,-15.56,4.47,5.55,-16.42,-29.69,72.33,17.28,-9.94,-6.0,16.68,34.0,46.55,12.17,134.32
105,-4.54,-23.21,22.82,13.79,12.23,0.7,-4.99,6.45,-2.08,-20.29,-31.76,71.46,9.18,-14.85,-14.18,11.11,24.1,46.06,12.23,247.45
106,-6.39,-27.35,29.31,17.65,4.93,-7.26,-11.03,2.54,0.61,-16.13,-29.42,70.11,10.8,-9.56,-13.94,17.09,26.69,46.39,11.81,232.48
107,-21.07,-50.84,22.07,9.02,0.68,-22.82,-17.19,-1.84,-11.11,-28.96,-40.57,52.38,2.06,-25.09,-23.45,0.63,13.05,33.25,-0.2,166.4
108,-2.2,-28.21,29.61,17.16,-9.55,-1.45,-4.1,6.64,-1.01,-19.95,-31.48,69.93,10.22,-13.91,-14.73,7.85,21.0,41.07,8.43,184.14
109,-2.92,-32.93,19.85,18.02,9.64,-2.47,-5.79,3.64,-1.91,-16.22,-27.41,64.66,9.36,-10.92,-17.07,14.85,23.53,44.33,13.12,249.83
110,-3.76,-32.39,23.18,18.69,-6.6,-11.89,-8.1,5.34,-3.65,-20.37,-31.01,65.66,7.02,-18.61,-19.66,4.9,15.19,33.21,5.49,194.31
111,5.07,-11.54,59.61,33.07,3.82,-8.82,7.42,14.41,4.26,-15.47,-26.7,67.27,11.56,-21.24,-20.79,5.02,12.12,32.18,6.09,196.25
112,-3.75,-33.42,29.47,23.86,16.21,-7.78,4.53,11.09,-7.35,-17.95,-26.34,58.4,5.81,-18.05,-21.7,5.82,17.02,41.48,12.39,265.22
113,-6.72,-35.45,18.23,8.97,-3.51,-4.31,-12.32,-2.83,-16.74,-31.15,-40.31,48.98,-7.96,-30.23,-32.0,-6.72,4.56,27.45,-1.4,217.13
114,-6.09,-30.58,28.32,3.65,-11.04,6.44,-19.8,-4.66,-14.38,-36.53,-46.27,46.43,-7.32,-36.61,-31.34,-9.09,5.34,24.81,-5.38,161.45
115,-13.22,-31.47,29.06,14.83,0.69,2.85,-5.91,3.18,-15.66,-32.4,-39.55,54.26,-7.3,-29.57,-30.03,-3.62,9.47,33.92,3.34,279.92
116,-6.54,-27.94,16.08,6.48,23.73,9.29,-13.41,-4.51,-19.03,-35.53,-44.3,50.98,-11.48,-32.49,-36.38,-7.99,0.96,25.22,-2.74,256.7
117,5.05,-19.0,38.62,20.67,14.65,-11.21,2.28,10.69,-2.51,-23.13,-33.09,61.24,3.61,-22.92,-21.03,-0.18,12.53,32.54,6.68,167.79
118,8.55,-14.25,46.63,30.4,4.84,-8.73,14.95,19.36,0.46,-16.53,-26.85,63.2,7.93,-16.11,-17.24,6.13,17.19,40.97,14.85,252.54
119,-10.47,-28.89,41.35,30.05,-9.3,-4.66,12.67,14.58,-8.84,-19.24,-27.45,57.98,-1.27,-17.31,-23.31,1.47,10.72,41.53,14.34,257.34
120,-20.6,-56.06,2.16,-3.11,7.64,-14.53,-16.87,-7.61,-30.61,-45.54,-52.45,38.33,-23.29,-40.95,-45.38,-18.74,-8.8,18.54,-9.02,211.28
121,-13.17,-37.88,24.51,10.34,4.39,25.16,-7.9,3.45,-22.18,-37.55,-44.87,48.05,-16.11,-37.44,-38.48,-13.6,-3.41,25.61,-2.08,224.8
122,-22.9,-49.99,12.98,3.23,-4.76,-8.07,-20.13,-5.44,-33.42,-43.22,-50.14,36.04,-24.27,-39.92,-47.8,-13.55,-4.97,23.9,-4.95,275.9
123,-13.14,-43.94,25.94,17.55,13.75,-12.97,-2.27,6.36,-22.81,-32.86,-39.19,46.19,-18.04,-34.45,-39.42,-6.46,1.67,29.46,2.69,222.21
124,-7.83,-31.15,38.47,21.29,-19.66,-5.43,5.3,11.25,-17.58,-35.33,-41.12,47.02,-19.14,-42.43,-38.22,-15.28,-8.02,23.49,-1.74,171.81
125,-26.0,-52.28,5.52,2.76,-11.95,-5.74,-12.89,-6.88,-37.96,-48.5,-54.24,28.18,-31.8,-50.45,-53.68,-25.02,-18.23,12.84,-12.89,256.0
126,-19.11,-36.32,16.01,2.45,20.4,8.2,-18.3,-9.66,-36.05,-46.18,-51.38,25.97,-37.19,-51.22,-55.85,-30.56,-24.21,14.15,-11.76,254.01
127,-13.62,-33.62,15.23,-1.07,-18.54,5.56,-22.19,-11.58,-33.7,-50.53,-56.55,34.26,-35.48,-58.5,-56.83,-35.06,-30.87,7.77,-17.47,151.73
128,-19.71,-55.65,-5.77,-7.72,3.94,-1.62,-23.22,-11.72,-40.62,-53.64,-56.58,33.57,-37.51,-56.99,-56.87,-34.83,-31.26,9.76,-14.62,234.96
129,-45.05,-67.66,1.7,-5.73,-19.89,-26.96,-21.39,-20.62,-58.31,-66.31,-66.99,5.81,-59.22,-72.87,-74.91,-53.9,-49.7,-7.5,-28.25,283.99
130,-20.42,-42.97,16.39,6.7,-7.2,-29.28,-10.77,-5.25,-37.19,-51.71,-53.07,26.36,-40.63,-59.57,-58.45,-39.39,-37.73,5.02,-14.92,194.64
131,-21.41,-51.07,23.2,13.36,-4.91,-16.23,-0.73,5.28,-34.07,-47.84,-48.54,32.65,-35.13,-57.24,-53.53,-35.53,-36.53,8.66,-9.26,197.81
132,-17.72,-47.22,20.98,14.51,16.39,9.45,-2.33,2.01,-35.93,-46.56,-46.23,25.76,-39.55,-57.66,-58.65,-37.66,-39.68,8.11,-8.96,280.77
133,-18.8,-52.12,5.75,2.94,9.61,-20.39,-17.8,-5.89,-41.65,-51.2,-52.05,15.53,-46.88,-63.12,-66.61,-46.14,-47.84,1.21,-16.31,226.78
134,-5.97,-24.38,31.28,22.28,15.59,1.25,7.57,12.71,-24.52,-38.31,-39.55,27.67,-35.35,-56.75,-55.37,-41.32,-43.39,5.4,-7.91,149.83
135,-22.53,-42.69,24.83,18.68,-17.95,5.11,-1.7,6.74,-32.34,-38.92,-40.1,29.62,-36.98,-55.87,-61.01,-44.04,-46.4,3.5,-8.75,205.77
136,-40.19,-67.87,3.61,0.09,-19.15,-12.99,-22.55,-9.49,-51.15,-53.79,-54.27,-0.73,-58.61,-71.48,-77.15,-62.12,-62.3,-5.78,-20.4,237.48
137,-14.44,-44.96,31.94,21.43,0.53,-1.48,1.52,11.56,-27.38,-37.17,-39.49,19.56,-38.72,-56.91,-58.08,-50.35,-46.82,7.83,-7.48,186.59
138,-24.21,-46.6,16.65,13.5,6.21,-3.93,-4.75,6.85,-28.69,-37.78,-40.32,25.78,-33.29,-52.44,-55.58,-45.86,-40.09,11.56,-5.4,245.91
139,-20.76,-45.85,25.09,15.56,-1.83,12.32,-11.89,3.82,-32.07,-36.67,-38.73,20.94,-39.69,-50.46,-58.98,-44.08,-41.77,13.09,-1.87,273.12
140,-17.01,-42.51,12.6,6.99,44.41,-15.1,-10.94,-0.99,-36.52,-49.68,-51.13,19.53,-48.02,-64.06,-68.5,-55.78,-53.13,-2.33,-17.63,191.89
141,-37.51,-69.76,-7.65,-11.11,-5.42,-10.4,-17.6,-15.06,-58.15,-71.28,-70.1,-2.25,-66.42,-86.27,-86.37,-78.92,-74.99,-22.83,-37.46,210.6
142,-34.19,-48.23,32.56,13.22,-24.81,-6.9,-3.9,-4.11,-47.67,-56.58,-55.71,-2.37,-62.6,-75.76,-79.78,-71.83,-68.33,-11.07,-24.56,307.65
143,-30.59,-47.47,18.19,5.93,13.32,-11.34,-8.79,-10.48,-49.74,-60.11,-60.0,-0.22,-65.19,-80.06,-80.97,-74.85,-68.04,-11.39,-28.91,267.66
144,-20.26,-38.88,28.8,11.64,-1.61,-15.69,-2.34,-0.08,-39.05,-53.81,-54.29,6.61,-53.61,-73.06,-67.4,-65.32,-56.53,-0.61,-19.87,236.19
145,-26.19,-42.17,24.15,10.97,0.93,-4.32,-4.05,-5.13,-44.36,-53.14,-54.51,2.49,-58.85,-72.84,-68.77,-65.67,-59.17,-1.68,-20.47,301.34
146,-32.75,-65.84,-8.33,-9.77,21.53,9.24,-19.83,-19.4,-58.22,-63.44,-65.8,-3.95,-70.38,-79.21,-77.95,-71.69,-66.64,-12.34,-29.47,296.6
147,-30.44,-50.59,0.67,-9.76,-12.45,-3.65,-23.68,-14.83,-51.05,-63.6,-66.24,1.91,-66.46,-81.38,-72.04,-76.82,-70.15,-13.31,-29.54,233.58
148,-15.17,-35.6,42.53,26.58,25.04,0.06,8.53,8.19,-31.65,-40.45,-40.95,19.92,-41.97,-56.4,-49.72,-51.29,-43.43,9.94,-7.11,266.58
149,-40.98,-63.55,5.79,6.37,-11.98,-19.01,-8.59,-7.33,-57.52,-57.53,-55.31,-4.75,-66.81,-69.4,-66.45,-69.49,-57.49,2.63,-16.76,306.2
150,-48.87,-63.64,-3.74,-1.43,-11.35,-1.56,-14.58,-7.18,-57.39,-63.2,-61.39,-5.66,-65.26,-75.34,-65.58,-74.27,-64.48,-3.53,-22.07,217.94
151,-39.12,-63.02,4.02,-7.25,-0.79,-9.51,-29.56,-12.05,-58.4,-67.1,-66.01,-12.55,-65.57,-81.28,-68.08,-81.94,-66.77,-4.21,-23.77,242.66
152,-50.31,-70.4,13.25,9.26,-35.07,-19.92,-7.68,-2.96,-60.05,-59.56,-56.48,-14.14,-68.01,-73.95,-64.72,-79.56,-65.87,2.51,-14.34,335.44
153,-20.84,-34.35,30.02,22.28,4.35,14.36,3.91,9.25,-32.39,-37.61,-37.84,16.92,-43.35,-51.43,-43.19,-53.33,-43.96,19.01,1.81,232.53
154,-9.5,-27.42,33.16,27.62,12.06,-0.55,10.26,20.06,-22.88,-31.4,-31.63,22.52,-30.18,-45.1,-32.6,-50.58,-38.62,27.8,10.65,168.17
155,-24.05,-50.62,12.41,13.17,-1.85,10.34,-1.96,8.47,-36.71,-41.05,-39.33,22.32,-35.27,-49.09,-39.12,-50.06,-41.45,23.34,4.99,119.92
156,-15.35,-34.07,29.29,18.13,21.22,-7.0,-1.24,5.58,-35.0,-37.48,-37.27,17.93,-41.92,-50.33,-40.67,-52.61,-42.72,19.94,3.17,22.05
157,-19.71,-36.48,24.84,18.37,9.69,-12.03,-0.21,8.73,-33.0,-40.22,-41.11,15.23,-38.86,-53.08,-38.75,-51.09,-43.18,15.85,0.26,7.19
158,-44.38,-60.02,7.68,-1.76,-9.86,-10.77,-18.05,-8.65,-53.23,-60.2,-61.02,-3.05,-58.47,-72.52,-57.54,-72.83,-62.36,-0.84,-17.77,204.35
159,-56.42,-87.03,-21.98,-20.31,-29.23,-27.45,-37.09,-29.22,-78.44,-78.42,-77.23,-29.26,-81.18,-91.99,-78.5,-93.83,-84.2,-16.56,-32.8,350.41
160,-45.89,-76.8,-15.38,-9.0,3.13,-18.49,-19.48,-12.86,-65.49,-69.85,-67.38,-12.15,-70.32,-80.73,-61.23,-82.42,-74.5,-6.36,-21.59,313.23
161,-42.57,-71.34,-8.14,-10.15,-10.48,0.28,-18.43,-10.98,-58.97,-67.3,-65.93,-2.31,-61.99,-75.95,-53.72,-80.93,-69.79,-0.85,-17.64,292.34
162,-39.54,-65.88,-8.83,-6.29,-3.45,1.43,-22.53,-12.28,-55.6,-57.3,-56.82,5.68,-57.29,-60.93,-46.59,-66.22,-58.78,12.0,-5.56,309.18
163,-29.71,-37.87,44.67,22.86,9.99,14.96,4.1,5.65,-35.12,-39.62,-40.83,15.59,-43.71,-48.47,-32.63,-56.33,-46.44,21.39,6.31,261.95
164,-31.04,-64.75,3.01,2.65,-19.12,-27.72,-6.5,-0.35,-42.99,-55.25,-55.35,15.11,-40.52,-55.39,-34.59,-59.99,-51.98,13.1,-3.51,221.61
165,-33.22,-41.57,17.51,4.34,-14.13,-18.86,-8.05,-8.73,-49.15,-59.44,-60.16,0.26,-51.73,-61.15,-46.12,-66.57,-58.02,5.88,-10.54,325.2
166,-51.69,-77.66,-21.57,-17.73,12.19,-7.89,-21.11,-24.63,-74.45,-81.13,-80.61,-17.99,-70.1,-81.28,-64.55,-85.47,-73.89,-7.3,-26.54,310.82
167,-40.38,-55.07,1.3,-12.25,-9.64,-17.34,-22.99,-19.4,-59.39,-72.91,-74.56,-2.76,-58.96,-74.32,-53.49,-75.59,-68.13,-3.34,-21.48,259.68
168,-49.5,-58.18,5.04,-10.74,-40.98,-19.66,-21.73,-19.53,-66.87,-77.1,-78.25,-11.24,-68.41,-80.99,-60.38,-85.68,-75.46,-9.36,-25.82,308.92
169,-26.46,-58.48,0.76,5.46,17.12,13.39,-2.63,-3.74,-51.85,-56.93,-55.85,4.95,-46.63,-54.58,-37.88,-58.76,-45.63,14.91,-1.97,291.43
170,-29.84,-54.32,4.73,1.34,7.43,-8.15,-11.53,-8.14,-47.98,-59.14,-57.91,8.55,-51.45,-60.4,-41.84,-65.29,-52.38,8.32,-8.01,247.17
171,-50.92,-66.3,10.84,-2.52,-40.18,-22.52,-18.06,-12.33,-58.21,-69.81,-68.42,-4.03,-61.16,-75.1,-52.37,-82.48,-66.32,-1.27,-19.48,261.04
172,-47.51,-65.73,-2.09,-3.92,3.59,-13.64,-19.34,-18.61,-66.56,-71.39,-68.74,-16.35,-67.27,-77.0,-58.23,-86.43,-69.51,-3.34,-19.59,351.3
173,-35.55,-51.69,14.83,13.93,0.84,2.46,-2.24,-1.74,-49.51,-55.52,-52.76,-0.8,-50.1,-61.46,-40.93,-69.57,-51.87,12.74,-5.34,295.14
174,-29.94,-51.45,23.62,10.79,-14.48,-4.43,-18.1,-4.0,-43.07,-55.16,-53.03,8.63,-44.08,-61.14,-35.68,-66.02,-48.92,11.42,-6.82,243.14
175,-48.16,-71.31,-12.25,-15.2,-17.77,6.06,-53.17,-26.78,-63.08,-69.44,-66.64,-7.33,-57.29,-68.58,-48.2,-73.35,-58.09,2.18,-16.25,307.87
176,-41.92,-52.76,15.89,17.2,1.23,-21.34,1.9,3.39,-50.07,-52.1,-47.12,-2.96,-48.16,-57.79,-36.22,-63.29,-48.25,17.81,-0.09,309.29
177,-30.27,-51.43,13.82,8.97,6.51,-13.42,-1.8,0.47,-47.45,-59.37,-56.38,7.19,-47.89,-62.74,-38.13,-68.97,-53.74,7.16,-9.04,235.81
178,-36.11,-54.46,12.21,5.69,17.49,0.55,-7.59,-4.23,-53.16,-63.16,-61.31,4.77,-51.13,-64.78,-45.18,-72.77,-58.67,2.69,-12.72,285.95
179,-42.7,-68.03,1.99,7.07,9.38,-5.34,-4.65,-4.93,-59.69,-63.68,-60.87,-1.56,-54.56,-65.5,-47.46,-72.21,-60.06,3.77,-10.65,301.84
180,-41.14,-53.74,20.05,11.55,-22.47,-8.34,-5.42,-0.36,-50.28,-59.9,-58.02,5.27,-49.5,-62.16,-40.18,-69.78,-54.99,8.54,-6.91,239.74
181,-26.87,-49.02,15.2,11.95,15.92,-15.49,-1.68,7.47,-45.55,-56.15,-54.1,12.07,-41.89,-53.64,-29.71,-58.83,-45.35,18.05,0.79,266.81
182,-52.65,-70.68,10.8,6.07,-6.18,-20.21,-6.38,-2.87,-63.12,-67.34,-63.86,-10.31,-60.48,-65.47,-46.34,-74.67,-60.72,5.36,-8.84,311.36
183,-39.29,-61.27,-0.12,0.43,0.04,0.58,-20.18,-4.02,-54.24,-61.99,-60.21,2.22,-52.62,-58.69,-39.9,-68.68,-56.47,10.68,-5.09,281.13
184,-19.93,-29.85,28.54,12.77,7.17,5.64,-15.0,7.71,-31.35,-45.56,-45.61,13.7,-32.25,-45.71,-21.17,-52.89,-41.21,20.63,5.38,210.92
185,-33.23,-44.21,26.27,16.63,-11.07,0.78,1.13,5.59,-41.01,-47.69,-46.87,11.73,-41.64,-48.67,-27.02,-58.69,-49.78,17.53,3.03,300.31
186,-50.83,-72.4,-16.73,-8.8,0.66,-11.69,-11.82,-16.78,-67.1,-69.42,-67.34,-10.92,-65.95,-68.86,-49.79,-81.21,-74.25,-7.1,-17.63,286.73
187,-41.09,-57.24,17.26,1.97,-34.13,-17.46,-15.74,-9.34,-47.77,-58.27,-59.34,-4.23,-52.03,-61.15,-37.02,-72.72,-67.35,-0.93,-13.54,181.43
188,-39.76,-44.12,13.9,-1.24,-1.76,3.17,-20.97,-9.35,-43.35,-52.36,-55.23,5.91,-46.73,-51.78,-31.44,-64.67,-58.85,6.81,-6.86,252.49
189,-50.79,-64.21,-0.66,-3.19,-7.74,-11.91,-14.62,-9.74,-55.5,-57.61,-56.74,-3.11,-54.44,-52.81,-37.1,-66.58,-59.58,8.53,-5.12,328.2
190,-56.87,-70.26,2.82,-11.24,-23.01,-16.48,-24.15,-20.57,-65.61,-74.62,-74.21,-19.05,-71.93,-73.26,-52.08,-85.94,-79.13,-14.35,-25.72,218.99
191,-51.0,-66.61,6.13,-4.86,-1.38,-25.83,-13.76,-13.85,-62.95,-70.43,-69.28,-14.13,-65.05,-69.37,-44.9,-80.77,-74.37,-7.87,-20.07,220.95
192,-43.71,-59.57,11.69,5.23,-34.81,-7.47,-6.58,-6.14,-53.12,-56.46,-56.26,-10.45,-52.24,-53.41,-35.11,-67.23,-61.15,9.99,-3.82,291.61
193,-45.49,-60.69,3.85,-1.73,10.73,-10.56,-10.62,-13.16,-59.58,-64.79,-64.65,-13.59,-63.39,-65.32,-44.25,-76.75,-71.39,-3.04,-16.01,247.44
194,-37.71,-59.16,6.34,0.35,-6.28,-22.69,-11.41,-6.09,-48.31,-58.86,-58.46,6.69,-49.76,-54.82,-30.56,-64.92,-58.88,3.7,-7.88,217.6
195,-58.12,-85.0,-26.53,-18.15,-51.49,-6.6,-24.85,-18.26,-66.57,-71.88,-67.54,-10.44,-62.99,-60.99,-40.13,-71.73,-63.06,2.27,-11.24,290.99
196,-37.38,-53.16,13.02,10.01,9.83,-0.59,-4.83,-3.77,-44.8,-48.77,-45.18,10.99,-43.69,-40.04,-20.54,-46.33,-37.39,23.97,8.38,251.42
197,-24.01,-34.91,16.81,6.02,20.61,-1.54,-9.43,-3.65,-37.98,-50.46,-49.95,13.34,-39.63,-45.19,-20.08,-47.76,-39.74,18.19,2.89,190.75
198,-31.25,-57.08,2.23,-0.3,-1.66,13.36,-16.95,-11.12,-46.58,-58.12,-55.91,11.0,-46.75,-51.95,-28.06,-49.91,-48.34,9.64,-4.7,228.44
199,-60.64,-92.92,-31.87,-21.06,-17.76,0.07,-37.43,-29.52,-72.11,-72.11,-67.87,-4.78,-65.17,-62.71,-42.37,-62.36,-60.08,1.14,-14.52,279.3
200,-19.66,-33.33,30.16,17.09,7.11,-2.0,-9.55,4.05,-29.03,-36.29,-35.0,26.51,-30.72,-32.31,-8.35,-32.98,-28.53,32.18,14.86,189.97
201,-1.48,-18.12,47.78,33.21,10.58,1.69,4.08,18.9,-8.94,-17.7,-18.31,45.92,-8.33,-10.91,12.87,-10.29,-2.99,51.82,32.0,138.86
202,-40.63,-58.16,3.15,1.32,-10.57,-30.67,-16.65,-9.91,-45.25,-46.43,-48.36,13.81,-42.78,-37.32,-18.58,-35.89,-26.4,27.12,6.47,228.08
203,-47.11,-59.41,6.19,-5.12,-9.02,-9.67,-28.12,-16.86,-47.82,-52.71,-54.78,7.98,-53.27,-47.45,-25.99,-50.46,-39.54,16.89,-2.86,188.95
204,-28.81,-42.49,15.92,-0.45,-1.13,-12.2,-25.49,-9.8,-33.44,-45.44,-50.09,13.22,-43.05,-39.91,-14.85,-40.08,-30.76,22.85,1.94,142.68
205,-41.95,-59.65,2.62,-3.09,4.72,-9.33,-16.74,-11.51,-47.83,-53.43,-55.36,2.1,-53.03,-43.56,-21.13,-48.66,-34.0,22.68,0.9,220.16
206,-42.05,-62.8,-4.82,-5.57,-12.64,4.1,-21.92,-13.93,-48.7,-51.73,-53.05,7.09,-48.74,-37.09,-17.69,-46.44,-26.51,27.74,4.9,201.23
207,-26.9,-51.85,5.65,-2.95,7.42,-13.4,-25.49,-8.43,-38.43,-46.53,-49.45,10.49,-39.39,-32.57,-9.96,-47.11,-26.48,27.88,6.69,157.75
208,-29.49,-41.2,14.7,11.11,-17.16,-18.49,-1.68,4.71,-30.97,-39.94,-40.83,13.35,-33.54,-27.15,-5.03,-48.96,-27.3,30.42,13.02,160.46
209,-43.42,-62.54,-7.1,-4.75,0.06,-16.49,-15.25,-11.55,-50.78,-55.12,-56.31,-15.56,-55.52,-44.63,-28.22,-68.69,-43.96,17.47,-2.4,197.72
210,-50.13,-67.52,11.67,0.6,-33.2,-20.7,-18.39,-6.79,-41.5,-48.57,-50.18,3.67,-46.8,-39.28,-19.55,-67.15,-40.08,24.92,2.24,150.09
211,-54.79,-67.35,-5.99,-7.65,-48.67,-24.74,-25.28,-11.5,-47.12,-56.9,-59.13,-6.67,-50.03,-47.07,-24.59,-73.34,-46.3,13.62,-6.46,149.86
212,-41.19,-48.51,9.15,2.29,-6.37,-7.5,-20.79,-10.29,-41.97,-45.0,-49.73,-5.11,-49.5,-37.2,-22.17,-66.49,-40.51,21.16,1.63,235.8
213,-38.55,-68.41,-5.52,-8.87,-4.62,-34.58,-23.98,-14.39,-47.4,-53.52,-56.03,3.66,-48.71,-40.99,-25.11,-64.16,-42.83,16.66,-4.21,204.36
214,-20.81,-28.53,38.56,22.7,3.27,-5.78,7.05,15.45,-18.36,-29.77,-34.5,23.78,-24.03,-22.1,-1.7,-45.97,-21.32,36.45,16.33,159.52
215,-31.62,-42.7,27.06,16.06,-1.96,-10.51,1.86,4.97,-32.36,-39.53,-44.09,11.66,-36.39,-31.49,-18.44,-56.86,-34.11,28.96,8.43,262.6
216,-39.94,-58.02,0.31,-1.6,-17.17,-16.14,-16.03,-8.87,-49.84,-53.98,-55.87,-5.26,-50.3,-44.53,-31.38,-75.31,-49.66,16.54,-4.08,243.76
217,-44.79,-49.1,3.59,-8.01,-18.78,-15.07,-21.94,-11.76,-44.23,-56.82,-61.12,-6.7,-50.09,-50.32,-32.39,-80.73,-52.98,8.8,-12.48,180.88
218,-53.56,-65.11,-12.07,-19.13,-17.83,-4.27,-37.03,-23.53,-48.79,-61.26,-65.56,-9.56,-50.15,-51.81,-37.95,-81.71,-56.18,3.32,-16.66,220.11
219,-62.2,-75.93,-10.52,-11.75,-8.81,-25.8,-26.29,-26.63,-60.65,-66.95,-70.73,-26.89,-65.96,-61.81,-52.47,-95.66,-72.31,-8.77,-25.42,266.01
220,-54.04,-88.46,-40.01,-18.67,-20.61,-23.14,-21.18,-18.58,-58.51,-66.89,-68.67,-10.24,-58.88,-58.71,-45.73,-89.55,-61.92,-1.29,-20.16,208.56
221,-39.12,-53.32,13.89,9.53,-11.97,-16.26,-5.74,-0.79,-34.59,-45.28,-48.28,1.89,-38.06,-42.94,-26.33,-70.73,-43.94,13.88,-3.74,183.88
222,-54.82,-51.33,24.4,6.45,-30.62,-6.12,-15.71,-15.38,-44.2,-50.73,-54.64,-14.15,-53.86,-49.75,-39.17,-77.97,-54.98,8.74,-11.44,274.97
223,-73.24,-82.39,-23.39,-30.61,-29.21,-31.23,-44.24,-44.35,-78.61,-86.18,-89.21,-48.32,-89.77,-84.2,-73.87,-116.45,-90.66,-27.3,-47.18,215.08
224,-60.27,-78.52,-7.14,-17.04,-24.45,-31.98,-29.04,-27.13,-62.6,-74.89,-78.32,-32.79,-72.85,-73.21,-58.46,-105.93,-77.36,-21.02,-38.13,165.28
225,-54.9,-65.97,0.11,-3.55,1.99,-6.2,-11.17,-16.01,-55.78,-62.43,-65.98,-24.64,-66.02,-61.11,-52.69,-91.42,-67.15,-7.52,-25.04,272.1
226,-48.99,-62.36,-2.1,-6.17,-7.21,-3.53,-23.55,-19.68,-54.04,-58.73,-62.07,-20.02,-61.38,-54.06,-48.31,-82.31,-56.12,1.59,-19.76,251.71
227,-34.92,-38.55,15.34,3.82,-3.82,-12.06,-12.54,-5.83,-35.15,-49.57,-54.1,-4.18,-46.11,-45.99,-34.38,-72.33,-42.68,12.17,-10.73,183.16
228,-42.85,-47.77,16.91,1.43,-6.57,-13.17,-11.26,-10.4,-42.74,-54.46,-60.72,-12.37,-55.18,-54.77,-44.41,-77.42,-50.79,3.49,-18.59,214.91
229,-60.2,-73.7,-4.34,-13.25,-16.35,-23.66,-26.25,-25.35,-58.8,-65.2,-70.7,-23.5,-64.34,-61.71,-55.21,-83.64,-55.55,-4.04,-26.36,230.89
230,-71.99,-90.18,-29.45,-41.11,-28.38,-34.46,-51.43,-46.47,-75.13,-88.21,-93.81,-35.38,-81.03,-82.81,-73.33,-105.34,-78.17,-27.59,-48.66,187.53
231,-53.28,-64.0,1.36,-12.51,-13.8,-17.57,-24.55,-20.92,-51.26,-66.59,-71.09,-16.03,-57.65,-60.22,-48.39,-82.18,-56.39,-5.69,-25.84,197.89
232,-61.06,-71.49,-15.6,-19.64,-4.15,-8.66,-34.0,-28.95,-59.01,-68.81,-72.45,-22.47,-63.44,-59.77,-52.06,-82.14,-56.88,-6.21,-26.37,230.86
233,-48.52,-58.89,0.7,-2.49,-22.54,-15.94,-17.03,-12.61,-40.56,-49.45,-53.49,0.75,-40.12,-38.38,-32.1,-59.62,-37.53,12.21,-9.08,182.77
234,-31.63,-41.61,15.36,5.68,-11.04,-6.77,-5.7,-1.98,-30.44,-47.67,-52.45,-0.38,-34.91,-41.33,-29.52,-63.01,-39.11,11.31,-8.88,175.68
235,-39.95,-47.81,10.3,-2.56,-6.85,-17.48,-17.4,-11.47,-39.68,-52.21,-58.03,2.6,-40.65,-45.53,-39.39,-66.61,-48.71,8.8,-11.57,224.33
236,-53.81,-61.8,-4.45,-11.13,0.56,-6.4,-26.96,-20.9,-48.71,-59.0,-64.0,-3.04,-47.05,-48.61,-46.28,-71.04,-53.41,0.4,-19.95,224.17
237,-29.79,-61.13,0.82,-4.72,43.71,-27.19,-30.83,-12.33,-32.59,-49.95,-55.67,17.82,-27.5,-38.75,-28.71,-54.38,-39.19,6.14,-12.64,141.68
238,-35.89,-55.64,11.97,5.94,-11.25,-31.86,-14.47,-6.4,-37.02,-51.28,-56.01,12.87,-34.55,-43.13,-34.01,-59.18,-43.66,6.27,-13.33,206.67
239,-40.93,-44.43,25.25,18.46,-12.78,-3.63,1.07,-0.11,-33.07,-42.74,-47.38,13.81,-32.39,-36.6,-32.04,-53.9,-39.43,13.15,-6.98,223.75
240,-29.26,-37.87,29.17,16.34,-7.95,-2.75,-1.76,2.01,-26.55,-41.86,-47.23,10.02,-29.08,-38.21,-28.96,-52.87,-37.96,9.3,-9.17,123.4
241,-58.03,-72.84,-13.74,-20.5,-25.85,-27.14,-41.8,-29.63,-60.38,-76.5,-80.59,-28.17,-64.87,-72.6,-61.64,-91.21,-68.43,-20.07,-39.29,139.39
242,-59.69,-63.59,1.14,-9.12,-5.21,-21.39,-27.32,-21.16,-54.83,-65.63,-69.13,-15.36,-59.25,-65.51,-58.39,-81.96,-63.4,-9.16,-28.71,200.41
243,-45.1,-53.43,12.36,5.42,-3.4,-26.06,-6.63,-7.49,-42.67,-52.88,-58.16,-5.72,-48.05,-56.96,-49.41,-72.63,-56.25,-2.3,-19.89,178.03
244,-27.94,-33.75,29.48,15.58,-11.73,-12.87,-1.12,6.95,-24.19,-39.47,-45.63,16.96,-27.36,-45.2,-36.12,-58.94,-45.3,6.49,-9.29,130.02
245,-37.93,-50.51,3.69,1.22,-2.95,-3.94,-10.98,-5.94,-38.4,-51.04,-57.18,0.86,-37.96,-53.87,-52.39,-65.21,-57.57,-6.18,-20.8,204.93
246,-67.09,-86.45,-28.96,-22.22,-20.06,-38.49,-34.8,-29.01,-69.61,-75.78,-79.62,-26.28,-70.61,-77.99,-76.54,-93.42,-78.37,-26.99,-42.06,235.46
247,-29.82,-42.74,1.78,-5.98,8.88,23.79,-25.61,-7.57,-37.96,-54.12,-59.19,2.28,-42.81,-58.29,-52.05,-73.02,-60.58,-9.1,-23.44,191.23
248,-52.88,-71.92,-9.86,-19.41,-5.03,-0.76,-35.38,-22.21,-57.89,-71.68,-76.94,-23.04,-61.76,-76.94,-72.57,-94.91,-83.11,-29.39,-41.83,237.09
249,-63.94,-77.12,-5.34,-2.33,5.9,-23.51,-26.71,-13.77,-57.64,-60.44,-63.47,-17.93,-60.88,-63.43,-62.02,-85.7,-72.71,-15.05,-27.64,278.92
250,-39.24,-35.41,36.38,21.84,-12.42,-23.16,-0.21,7.61,-29.6,-38.98,-45.16,6.83,-39.05,-46.58,-41.45,-70.35,-53.19,1.54,-12.28,174.98
251,-39.47,-38.65,28.84,14.77,-7.43,-17.56,-7.18,2.68,-31.36,-45.06,-50.45,-3.16,-40.79,-52.09,-43.74,-73.32,-57.3,-2.08,-16.06,198.37
252,-58.68,-78.72,-12.13,-11.38,-31.28,-34.78,-30.39,-20.68,-61.81,-65.86,-69.57,-18.02,-60.29,-68.15,-64.67,-87.44,-77.39,-19.8,-32.47,309.7
253,-42.9,-51.85,12.48,8.19,-14.16,-12.72,-7.78,-3.85,-41.2,-48.51,-54.25,0.83,-41.2,-51.1,-47.06,-70.81,-59.51,-7.14,-18.86,205.5
254,-43.67,-56.58,-1.92,-6.36,1.54,7.58,-22.13,-12.03,-47.02,-60.72,-66.25,-14.23,-46.76,-62.67,-55.5,-78.52,-68.57,-17.08,-30.66,180.59
255,-52.23,-68.57,-0.13,-7.18,-8.74,0.39,-26.65,-17.29,-54.06,-62.49,-67.63,-26.31,-58.33,-64.48,-60.36,-83.68,-70.9,-18.1,-30.19,257.82
256,-36.85,-43.14,25.36,12.48,4.45,-28.73,-7.57,-0.84,-33.8,-43.06,-49.44,0.67,-44.65,-50.47,-45.55,-68.79,-57.07,-1.93,-15.01,213.69
257,-36.89,-48.17,20.54,4.12,-1.33,-23.39,-7.82,-4.32,-38.34,-52.42,-60.69,-7.13,-49.27,-60.63,-53.02,-74.68,-62.91,-14.74,-27.07,173.65
258,-46.18,-56.6,-2.39,-16.67,-19.98,-17.1,-31.81,-21.75,-48.71,-65.05,-73.75,-16.21,-59.7,-69.75,-63.25,-86.22,-73.31,-25.68,-38.0,185.29
259,-42.04,-49.41,9.0,2.97,3.98,-3.0,-14.3,-9.49,-37.62,-45.04,-53.45,4.62,-45.07,-50.13,-48.75,-65.06,-49.82,-6.19,-19.68,154.64
260,-24.32,-37.18,30.49,15.32,-15.67,-12.03,-1.74,-0.57,-22.84,-36.79,-45.18,5.98,-33.32,-42.82,-39.02,-56.4,-41.16,-1.85,-14.78,-4.88
261,-29.67,-47.4,16.79,4.38,-13.83,-23.61,-16.96,-5.32,-25.41,-39.4,-48.32,7.15,-33.5,-42.92,-35.5,-56.35,-40.82,1.2,-14.0,-64.45
262,-18.8,-38.62,30.74,26.28,40.78,-8.6,1.47,6.8,-14.62,-21.16,-30.4,14.43,-22.49,-27.08,-25.07,-42.49,-27.37,15.41,1.67,3.49
263,-14.97,-20.49,45.71,33.37,14.98,20.15,6.44,9.41,-6.07,-17.52,-29.83,14.62,-22.85,-27.41,-25.85,-43.44,-31.44,6.13,-2.99,114.76
264,-29.28,-41.31,14.02,2.71,2.9,3.55,-26.78,-8.53,-25.37,-42.5,-53.88,-13.64,-43.55,-53.71,-46.29,-66.79,-53.46,-14.71,-24.99,234.03
265,-32.12,-43.53,28.23,21.62,2.35,-7.88,-1.24,3.08,-24.96,-32.83,-42.21,-6.64,-41.06,-47.82,-46.24,-62.64,-51.45,-7.41,-16.93,321.61
266,-48.18,-57.37,18.06,12.93,-3.59,-10.18,-7.91,-7.82,-37.95,-44.87,-53.88,-16.91,-57.19,-63.28,-61.3,-82.74,-70.7,-23.63,-31.28,295.18
267,-45.48,-55.33,6.4,-1.19,3.2,4.28,-22.52,-13.78,-42.1,-53.46,-62.13,-24.41,-63.26,-71.59,-63.92,-92.79,-78.38,-29.0,-38.18,203.68
268,-54.84,-59.5,11.04,-0.96,-23.52,-8.54,-21.99,-17.1,-45.89,-56.46,-65.36,-31.35,-68.88,-77.14,-70.14,-96.84,-84.83,-34.16,-42.88,243.74
269,-63.6,-70.11,5.6,-4.01,-11.9,4.56,-35.13,-21.93,-48.86,-51.13,-61.34,-32.7,-66.56,-71.66,-65.79,-96.73,-83.7,-26.53,-35.95,267.42
270,-48.44,-53.83,14.67,2.04,-6.19,-16.32,-22.58,-12.55,-36.12,-44.68,-55.53,-25.43,-63.47,-68.51,-59.38,-96.95,-79.76,-23.76,-31.03,192.95
271,-36.78,-38.05,23.26,9.19,-12.95,-7.94,-16.1,-6.78,-27.71,-39.82,-52.51,-23.54,-58.22,-63.91,-53.27,-93.15,-78.53,-21.21,-27.47,213.07
272,-49.3,-54.08,-6.77,-0.04,-4.95,-6.94,-13.39,-14.53,-40.49,-45.77,-58.27,-29.19,-66.86,-66.62,-61.02,-97.86,-84.1,-23.89,-30.46,268.33
273,-47.86,-51.23,22.56,8.02,-9.69,-22.1,-5.88,-11.61,-35.46,-44.11,-57.71,-36.32,-67.17,-69.79,-64.07,-100.24,-84.92,-26.44,-33.98,229.92
274,-52.03,-55.42,13.55,-4.74,-9.38,-21.79,-17.16,-17.48,-41.2,-55.15,-69.12,-36.43,-67.68,-79.06,-69.61,-110.12,-88.82,-33.91,-43.97,195.47
275,-65.28,-86.87,-17.14,-15.34,-21.96,-31.19,-23.33,-22.43,-62.23,-65.6,-76.01,-50.69,-83.54,-85.8,-79.03,-117.0,-96.66,-33.42,-42.92,290.66
276,-53.0,-61.42,13.2,6.33,-38.94,-17.54,-7.66,-9.49,-43.62,-48.75,-59.16,-35.51,-72.23,-71.32,-67.0,-102.84,-81.57,-18.07,-27.61,263.34
277,-55.99,-61.43,2.66,-8.12,-10.74,-25.78,-24.24,-16.99,-43.24,-56.87,-69.45,-32.84,-73.45,-78.62,-70.38,-107.43,-87.86,-27.4,-37.35,184.43
278,-60.22,-68.95,-6.49,-13.67,0.37,-27.7,-31.2,-22.07,-48.45,-60.29,-71.38,-31.11,-71.18,-79.26,-70.21,-107.0,-90.78,-29.94,-38.78,256.32
279,-41.33,-37.26,27.04,13.15,-14.14,-14.37,-11.37,-6.4,-31.01,-37.65,-49.11,-17.68,-60.84,-58.78,-52.22,-89.14,-70.94,-9.99,-18.03,253.17
280,-39.87,-50.28,16.33,5.88,1.79,-18.35,-16.84,-6.34,-32.78,-42.71,-52.64,-29.57,-59.64,-62.47,-51.61,-91.67,-72.36,-13.14,-20.06,185.08
281,-28.39,-35.85,27.82,13.74,-6.78,-4.87,-11.42,1.27,-24.16,-37.08,-47.44,-18.82,-51.05,-55.04,-44.6,-85.94,-65.51,-5.1,-13.47,204.48
282,-37.37,-48.41,13.46,8.83,16.75,-6.08,-13.75,-6.91,-38.81,-45.52,-53.97,-26.02,-60.41,-63.44,-54.57,-92.31,-71.59,-8.58,-18.31,279.38
283,-55.91,-69.54,4.61,-4.41,-28.51,-43.47,-32.66,-19.78,-51.17,-58.98,-65.98,-40.51,-77.07,-76.79,-66.38,-107.98,-86.11,-22.81,-31.97,233.71
284,-33.46,-36.15,32.92,19.34,-9.9,-15.08,-6.78,4.5,-26.91,-39.41,-47.69,-14.68,-56.37,-58.82,-46.06,-87.09,-67.42,-7.39,-16.26,215.82
285,-34.26,-41.91,19.37,18.91,4.44,-10.16,-3.26,3.42,-28.72,-34.98,-42.89,-13.69,-52.0,-51.06,-42.5,-81.18,-59.19,-1.66,-10.31,257.73
286,-30.86,-42.23,35.08,23.88,1.03,17.55,-12.55,4.11,-23.74,-25.28,-32.76,-10.11,-45.92,-41.15,-36.4,-70.88,-49.75,8.75,-0.25,251.97
287,-32.01,-39.19,30.91,16.01,-3.74,-1.59,-11.71,-1.87,-27.42,-38.12,-47.35,-13.31,-50.57,-57.6,-47.94,-83.08,-65.56,-10.26,-18.5,154.12
288,-34.27,-44.39,13.02,4.48,20.97,-16.5,-22.82,-12.19,-39.44,-47.25,-54.81,-22.55,-59.45,-62.41,-55.11,-85.45,-67.35,-16.2,-25.15,207.76
289,-41.39,-63.44,8.31,6.27,-2.4,-12.1,-16.35,-14.48,-49.39,-50.1,-56.1,-26.48,-65.41,-65.68,-61.77,-89.7,-75.74,-17.52,-25.77,287.14
290,-15.3,-38.87,22.61,20.01,29.97,-4.83,-7.39,1.61,-23.09,-28.55,-36.53,3.64,-38.25,-43.3,-35.99,-66.56,-51.37,2.62,-6.27,173.54
291,-26.36,-41.7,25.55,14.71,-9.64,-3.89,-13.88,-5.35,-24.52,-32.45,-42.13,-1.7,-44.52,-47.63,-40.49,-67.35,-56.76,-3.5,-11.85,179.14
292,-38.15,-46.66,19.13,14.52,-1.46,-10.77,-7.32,-5.21,-36.73,-37.89,-43.85,-12.57,-53.4,-52.6,-46.97,-77.93,-63.01,-1.34,-11.08,246.32
293,-31.23,-32.68,37.98,25.09,16.0,-3.28,-2.36,0.72,-26.71,-29.89,-37.91,-5.79,-48.97,-46.37,-40.48,-75.73,-61.32,3.73,-6.58,197.43
294,-38.74,-53.52,9.3,8.13,-30.2,-32.0,-17.06,-8.19,-34.24,-41.68,-47.98,-18.0,-50.53,-50.8,-41.98,-80.01,-65.31,-5.46,-14.64,190.66
295,-23.82,-33.65,37.01,25.85,7.97,0.26,-4.51,3.83,-20.65,-24.74,-31.14,0.88,-34.11,-31.93,-23.79,-61.78,-46.17,14.33,3.89,215.58
296,-30.34,-40.66,28.55,16.58,20.74,1.49,-13.02,-8.61,-31.0,-34.72,-43.32,-6.62,-43.03,-42.24,-37.38,-68.7,-57.71,1.63,-8.83,205.95
297,-38.77,-53.5,9.03,0.84,-7.48,-20.74,-23.54,-15.89,-39.26,-51.03,-59.63,-7.66,-50.79,-55.75,-50.45,-79.45,-69.97,-17.01,-24.32,145.13
298,-34.08,-43.61,11.64,5.89,0.53,0.79,-17.44,-8.89,-36.18,-46.21,-54.35,1.71,-43.81,-49.36,-46.01,-70.49,-64.2,-6.86,-17.22,188.2
299,-37.77,-40.7,29.86,16.79,16.49,-1.37,-8.01,-7.8,-36.13,-42.12,-51.6,-10.38,-45.65,-49.6,-49.99,-66.93,-62.35,-6.45,-17.07,256.66
300,-35.51,-58.37,3.6,-7.66,4.01,0.93,-29.28,-21.98,-46.36,-59.69,-70.04,-23.17,-53.62,-63.24,-60.87,-77.76,-74.3,-23.06,-33.6,161.88
301,-44.87,-55.28,11.75,-0.95,-16.32,-16.49,-14.14,-16.63,-48.07,-62.84,-72.61,-24.86,-59.95,-67.09,-63.29,-84.65,-80.83,-25.97,-37.72,149.05
302,-48.77,-54.11,7.73,1.51,-9.04,-18.73,-15.33,-15.88,-48.91,-57.09,-65.64,-15.12,-55.77,-55.64,-60.28,-70.58,-69.36,-16.39,-27.01,228.1
303,-55.88,-76.86,-8.68,-10.63,-33.08,-10.06,-27.05,-22.13,-58.24,-66.87,-76.23,-23.43,-62.33,-64.8,-67.83,-78.76,-76.6,-20.86,-33.99,165.94
304,-40.14,-61.96,0.29,-10.31,3.07,-28.46,-24.59,-18.89,-48.81,-64.15,-74.48,-17.35,-53.28,-62.79,-62.12,-76.12,-74.1,-20.37,-33.79,119.04
305,-33.42,-44.46,10.89,1.27,-1.78,-24.49,-13.53,-11.62,-41.31,-52.25,-62.18,-4.93,-44.88,-49.08,-51.57,-63.16,-59.28,-4.21,-20.8,177.99
306,-53.29,-65.78,2.27,-1.71,-24.22,-23.59,-9.72,-17.37,-54.63,-60.71,-70.57,-15.59,-57.48,-59.27,-61.1,-69.88,-68.18,-13.53,-30.24,171.92
307,-41.51,-54.15,0.55,-12.73,3.28,-7.79,-25.97,-21.83,-53.43,-65.61,-74.47,-15.04,-60.37,-63.22,-60.11,-73.45,-68.45,-18.09,-33.5,105.39
308,-42.49,-57.06,-6.89,-17.25,-12.71,16.36,-37.46,-27.11,-52.71,-61.97,-70.94,-10.34,-53.33,-56.72,-53.28,-66.76,-62.65,-12.28,-29.33,123.41
309,-41.39,-66.45,7.14,6.14,-2.16,-21.01,-10.14,-13.97,-49.04,-49.39,-56.62,-10.88,-46.97,-46.02,-46.07,-55.93,-52.84,-1.61,-17.16,163.94
310,-30.33,-52.3,13.29,7.7,-1.47,-19.27,-9.65,-10.46,-40.52,-46.35,-54.35,-0.29,-41.98,-45.49,-41.55,-56.63,-50.15,-1.36,-17.12,114.33
311,-39.36,-66.63,-13.98,-13.15,-7.19,-31.02,-31.14,-25.39,-48.42,-59.52,-68.1,-5.67,-43.05,-54.32,-48.07,-58.08,-54.52,-9.53,-26.08,88.16
312,-54.97,-76.81,-13.8,-15.79,-8.45,-18.75,-37.85,-32.94,-62.74,-64.63,-71.21,-15.49,-59.1,-58.65,-57.56,-61.82,-58.27,-11.02,-27.52,159.74
313,-37.09,-64.33,4.51,0.78,-11.31,-4.84,-19.91,-17.86,-49.62,-52.91,-57.55,-6.27,-46.9,-46.96,-40.16,-49.05,-42.08,1.91,-14.87,120.15
314,-21.53,-50.71,11.54,9.08,11.46,0.22,-14.02,-9.75,-34.8,-44.6,-49.73,12.34,-31.75,-39.71,-25.76,-36.1,-27.42,15.33,-5.67,105.67
315,-36.52,-47.58,17.42,13.03,-2.24,-15.32,-8.45,-14.01,-43.06,-45.22,-51.36,11.14,-39.83,-41.36,-32.98,-37.5,-31.86,10.07,-9.43,154.6
316,-43.65,-49.6,14.95,5.93,-24.35,-25.33,-10.07,-22.81,-51.0,-53.68,-61.95,-5.7,-52.29,-53.65,-47.08,-50.73,-44.8,-4.86,-22.12,134.08
317,-40.23,-48.66,9.95,-2.82,-27.26,-21.87,-21.85,-25.99,-47.69,-59.56,-67.41,-3.3,-48.82,-58.36,-47.98,-52.35,-48.38,-9.25,-28.23,108.3
318,-37.34,-60.08,4.27,-4.51,-14.62,-16.6,-29.14,-25.88,-47.89,-58.96,-65.36,2.18,-44.52,-52.99,-43.07,-43.08,-39.03,0.99,-21.1,153.61
319,-37.92,-60.23,8.02,4.19,-23.2,-11.23,-16.3,-18.67,-49.54,-56.04,-59.95,2.71,-44.05,-48.93,-40.53,-35.01,-29.63,7.57,-14.43,197.19
320,-21.87,-44.09,14.36,11.23,6.49,-11.49,-4.67,-9.14,-37.74,-49.01,-52.93,15.51,-30.43,-42.53,-31.06,-27.59,-21.81,11.49,-9.78,112.37
321,-30.17,-55.22,2.12,-3.04,3.84,-18.38,-18.93,-20.57,-48.9,-63.35,-67.57,6.23,-39.3,-53.91,-39.99,-37.38,-33.97,0.2,-21.52,137.48
322,-52.83,-69.22,-0.41,-7.38,-21.85,-25.97,-22.4,-27.92,-61.65,-69.48,-72.08,-9.29,-53.78,-59.44,-49.74,-45.13,-42.93,-5.65,-26.38,209.54
323,-44.67,-56.19,-2.05,-6.72,-1.18,-7.19,-21.21,-26.25,-59.62,-68.23,-70.93,1.22,-50.43,-60.52,-48.03,-42.81,-44.51,-4.94,-25.04,156.86
324,-34.75,-65.92,-4.04,-10.55,-28.15,-8.37,-27.21,-25.73,-53.32,-65.94,-69.88,9.68,-38.58,-56.03,-37.97,-32.84,-35.38,0.51,-22.55,107.09
325,-36.16,-65.76,-17.26,-13.74,-3.0,-12.3,-23.12,-28.78,-58.05,-67.45,-70.6,6.17,-42.39,-55.82,-40.76,-33.01,-34.4,3.23,-20.45,195.55
326,-35.41,-61.57,-8.59,-15.04,-21.14,6.55,-26.54,-30.34,-58.58,-64.18,-68.94,11.63,-43.43,-54.39,-38.63,-27.97,-32.22,7.55,-18.22,173.78
327,-27.78,-56.25,13.53,-3.16,-11.27,-7.62,-17.9,-22.61,-50.99,-62.46,-66.71,15.82,-37.4,-51.8,-31.71,-26.17,-28.23,6.11,-18.52,99.87
328,-41.46,-67.34,-0.62,-9.94,-9.74,-31.41,-27.42,-33.48,-66.8,-75.6,-79.05,-0.65,-56.09,-65.62,-48.18,-42.12,-45.62,-7.87,-30.12,167.98
329,-53.2,-75.61,-2.31,-7.88,-4.52,-18.9,-25.58,-32.98,-66.54,-71.84,-74.75,-2.45,-54.37,-60.72,-47.02,-36.77,-40.63,-5.03,-26.54,186.75
330,-36.27,-77.94,-21.26,-13.32,3.32,-28.42,-27.24,-28.4,-60.06,-68.86,-72.5,8.6,-43.04,-54.78,-37.3,-28.81,-29.75,2.81,-21.82,154.43
331,-26.33,-52.67,8.8,3.44,-26.99,-25.72,-17.64,-15.82,-42.02,-53.99,-59.63,18.84,-29.68,-40.76,-25.49,-20.69,-22.53,13.28,-11.01,170.26
332,-31.85,-44.47,15.69,13.01,-6.82,-22.16,-2.44,-12.35,-41.54,-49.01,-56.06,11.42,-31.53,-38.72,-27.42,-23.95,-20.45,18.97,-6.37,196.39
333,-36.67,-51.47,5.84,3.96,-12.51,-3.62,-16.18,-19.53,-46.03,-53.44,-59.95,8.5,-32.91,-42.0,-30.07,-32.91,-26.23,15.13,-10.05,166.96
334,-21.16,-47.96,15.37,7.75,17.2,-1.74,-19.21,-12.71,-34.84,-47.71,-54.5,23.45,-23.43,-34.79,-19.76,-33.06,-21.05,17.86,-5.19,110.17
335,-39.78,-65.45,-3.03,-8.95,4.49,-20.54,-29.11,-30.99,-53.77,-64.14,-70.89,-5.35,-40.63,-51.75,-41.34,-51.11,-43.27,-0.05,-21.48,177.09
336,-72.26,-86.98,-25.79,-26.4,-50.69,-32.81,-42.57,-48.14,-77.42,-83.4,-88.6,-37.64,-64.16,-73.82,-65.71,-81.81,-66.91,-18.22,-39.77,179.72
337,-25.72,-40.54,14.74,9.26,0.67,-15.26,-5.39,-10.81,-31.82,-46.11,-53.01,12.46,-24.85,-39.86,-26.15,-47.7,-36.37,11.21,-7.68,81.85
338,-26.87,-39.99,18.82,6.77,-12.59,-5.73,-15.27,-16.68,-28.84,-41.9,-50.92,18.56,-20.93,-35.33,-24.5,-42.09,-32.46,12.64,-6.36,120.77
339,-29.38,-46.47,16.84,10.52,1.75,-12.96,-14.34,-19.21,-27.51,-35.82,-45.69,17.86,-15.31,-27.6,-22.29,-33.31,-25.65,20.13,-0.62,218.62
340,-20.2,-37.36,13.23,3.19,-11.5,2.71,-18.34,-20.41,-25.14,-42.21,-52.16,14.22,-16.02,-35.69,-25.08,-42.86,-30.08,11.73,-7.85,100.71
341,-3.23,-25.71,26.07,16.36,6.89,1.79,-7.42,-3.45,-11.71,-28.8,-37.51,29.05,0.55,-18.01,-4.4,-25.87,-11.54,33.93,12.3,131.41
342,-18.98,-38.11,19.21,18.36,12.11,-12.63,-4.4,-7.94,-21.8,-34.41,-41.57,29.17,-4.83,-21.64,-13.14,-25.24,-17.65,31.89,7.98,197.03
343,-41.67,-55.96,-0.83,-5.61,-14.22,-11.56,-30.17,-30.74,-44.73,-58.72,-66.72,7.24,-31.32,-49.56,-38.32,-57.5,-45.06,3.95,-18.41,108.28
344,-23.22,-41.71,17.53,12.89,-9.98,-9.85,-7.09,-8.57,-21.62,-39.45,-50.43,25.54,-8.19,-32.05,-19.56,-38.23,-28.36,19.45,-2.89,64.46
345,-27.34,-43.4,20.42,11.84,-9.75,-13.66,-9.75,-14.9,-25.67,-42.32,-54.79,16.44,-12.42,-37.51,-25.76,-44.1,-32.46,15.34,-8.0,134.87
346,-23.59,-46.76,12.0,7.31,-6.92,-9.01,-12.31,-17.76,-28.67,-43.3,-54.36,18.76,-15.3,-35.59,-28.63,-42.4,-34.83,13.02,-9.02,139.79
347,-15.32,-32.86,26.88,12.93,-2.28,-21.33,-9.07,-10.06,-19.72,-39.93,-52.32,27.39,-6.64,-33.86,-20.93,-37.15,-27.51,16.63,-5.71,87.7
348,-4.21,-32.8,0.67,3.47,18.34,6.12,-20.37,-13.64,-16.29,-35.98,-48.13,41.4,5.95,-23.25,-10.5,-25.41,-15.48,27.75,1.72,110.86
349,-8.29,-30.92,14.01,17.87,26.16,0.07,-3.59,-7.27,-15.69,-28.74,-39.97,30.75,3.35,-16.13,-11.23,-22.06,-13.61,32.55,7.92,174.77
350,-25.71,-44.1,26.51,9.78,-17.66,1.88,-20.99,-19.13,-23.04,-41.57,-55.21,23.13,-9.24,-35.35,-24.41,-42.58,-32.65,12.65,-10.49,118.71
351,-20.05,-38.02,28.85,12.92,11.05,-19.0,-12.53,-13.53,-15.17,-35.91,-49.84,33.74,-1.37,-31.63,-17.08,-39.34,-29.6,15.92,-7.75,142.87
352,-30.15,-34.2,24.52,8.54,-14.81,-3.66,-16.67,-25.05,-28.5,-43.41,-56.9,13.53,-16.5,-41.48,-32.97,-50.04,-40.71,8.29,-14.48,218.99
353,-18.48,-42.54,8.99,4.02,-2.98,-3.65,-17.22,-19.5,-18.1,-36.09,-49.08,35.67,0.51,-28.84,-16.69,-32.96,-24.75,22.72,-2.14,169.76
354,-21.59,-48.51,13.31,3.33,-11.85,-15.39,-14.69,-19.97,-24.32,-44.41,-55.42,26.04,-4.38,-36.86,-19.75,-40.36,-31.18,16.48,-9.47,143.08
355,-17.14,-34.28,26.78,11.81,-8.49,-7.5,-10.88,-16.45,-23.63,-39.16,-50.15,27.51,-5.42,-33.93,-19.3,-36.02,-28.17,19.14,-4.49,192.62
356,-25.38,-51.36,4.99,2.6,3.64,-3.39,-16.16,-22.73,-29.68,-43.59,-52.48,23.11,-9.7,-33.93,-20.68,-36.94,-27.85,17.62,-5.38,196.0
357,-23.24,-37.14,8.12,-1.37,6.86,2.01,-18.98,-24.57,-31.21,-50.08,-60.86,14.32,-17.89,-47.29,-27.94,-48.62,-39.07,6.26,-16.16,142.17
358,-19.31,-31.17,23.01,5.43,-4.76,-15.44,-12.61,-19.95,-23.88,-42.39,-53.21,23.69,-10.29,-39.15,-21.03,-40.1,-32.23,11.59,-9.86,182.59
359,-25.51,-37.76,26.99,9.55,-3.08,-9.21,-10.71,-22.25,-25.17,-38.61,-50.83,25.58,-11.98,-35.9,-21.81,-35.72,-30.99,12.41,-7.64,210.72
360,-20.38,-48.37,3.0,-1.26,8.05,-21.77,-23.06,-24.84,-27.3,-45.24,-56.72,27.87,-11.16,-41.31,-22.87,-38.12,-32.56,10.58,-10.74,137.55
361,-6.72,-22.37,30.51,14.24,-4.11,-8.25,-4.15,-11.59,-11.74,-36.05,-47.43,36.4,5.73,-33.3,-11.98,-27.49,-20.79,19.94,-2.88,122.02
362,-22.58,-45.11,10.6,-1.27,-10.14,-7.13,-21.2,-27.41,-31.28,-46.25,-56.9,28.76,-9.53,-38.39,-22.12,-34.85,-27.1,16.12,-7.22,222.82
363,-15.9,-44.42,20.19,7.48,-6.15,2.24,-22.17,-22.91,-20.68,-37.66,-48.42,41.38,2.0,-28.7,-11.26,-24.93,-16.67,23.15,0.35,122.32
364,-6.2,-31.86,29.94,12.97,-5.2,1.57,-12.9,-14.65,-11.77,-34.64,-47.16,42.24,8.79,-28.44,-6.43,-25.29,-18.13,21.74,-0.44,34.6
365,2.86,-17.97,23.88,11.5,27.14,-1.08,-17.3,-16.25,-6.63,-26.2,-39.66,52.15,13.39,-18.15,-0.74,-15.05,-7.49,29.45,7.94,20.0
366,1.34,-15.25,37.83,22.03,6.1,-8.57,-9.37,-14.66,-4.65,-22.72,-36.59,52.25,10.79,-19.31,-5.95,-17.43,-12.68,25.52,5.66,-49.25
367,4.21,-6.16,58.03,39.54,4.08,-3.61,13.61,2.52,9.51,-10.63,-24.96,59.71,22.27,-13.41,7.55,-10.2,-5.48,35.74,15.09,-122.98
368,7.15,-9.92,48.81,34.59,23.07,-0.02,4.87,-0.74,6.56,-11.72,-26.31,56.18,23.92,-14.17,7.55,-9.71,-6.03,37.21,16.66,65.79
369,0.9,-19.39,46.89,34.87,33.18,17.44,9.09,-0.79,0.17,-13.11,-26.73,56.28,18.41,-11.63,5.85,-10.07,-6.81,37.05,17.45,239.63
370,-12.52,-41.15,9.41,7.06,-2.42,-5.4,-15.67,-14.32,-14.43,-32.36,-44.41,40.25,6.41,-24.96,-3.32,-22.05,-17.82,25.93,5.64,233.96
371,-19.01,-45.27,20.76,8.13,-3.73,4.05,-12.04,-14.78,-21.73,-43.1,-54.39,33.18,-1.49,-37.11,-12.18,-33.4,-30.01,14.58,-4.84,211.08
372,-29.4,-55.83,-7.7,-10.75,6.66,-4.29,-25.09,-31.8,-37.16,-54.17,-67.41,32.77,-12.55,-47.68,-26.16,-43.38,-40.12,7.12,-14.44,255.94
373,-23.33,-40.27,8.0,-0.71,-22.79,-10.33,-15.11,-24.73,-27.67,-46.11,-61.07,23.8,-10.55,-44.77,-22.26,-43.78,-41.02,5.05,-12.51,180.36
374,-15.9,-38.58,19.96,3.71,1.22,-1.71,-19.59,-17.17,-12.1,-34.93,-53.07,36.36,4.03,-36.07,-8.76,-31.19,-28.86,14.92,-4.46,132.91
375,-13.96,-26.25,43.57,24.0,-0.15,-15.26,-1.38,-8.65,-4.35,-21.5,-39.6,43.5,8.12,-26.92,-3.63,-27.56,-23.17,26.19,7.2,202.07
376,-4.66,-22.52,36.65,25.6,0.79,-7.31,6.85,-6.19,-2.08,-18.72,-36.13,42.71,7.61,-22.89,-3.5,-25.36,-22.51,25.75,8.69,197.87
377,-18.68,-29.62,22.83,6.47,-8.06,-7.37,-18.21,-21.49,-10.83,-32.54,-52.02,34.48,-2.09,-40.14,-13.5,-38.16,-36.16,9.93,-8.33,114.95
378,-14.93,-22.08,28.39,12.32,3.28,-10.63,-19.33,-17.52,-3.17,-22.58,-41.71,35.35,6.25,-27.32,-2.57,-29.68,-23.18,20.82,2.26,197.0
379,-12.17,-27.02,36.91,29.72,11.97,-0.46,9.46,-2.65,-0.8,-14.83,-32.86,46.05,10.18,-19.98,1.08,-23.22,-17.48,31.69,12.77,231.76
380,-5.11,-17.33,40.78,24.66,8.19,-1.72,6.87,-6.28,1.84,-19.79,-39.68,39.21,2.84,-31.12,-5.52,-33.79,-30.77,16.7,2.76,129.14
381,-7.49,-29.25,36.56,24.86,20.28,2.08,2.33,-4.49,2.62,-15.3,-36.16,38.8,8.04,-25.69,0.46,-31.46,-30.57,18.07,6.04,146.24
382,-9.54,-33.1,27.16,23.43,-14.07,-2.34,0.33,-7.65,2.41,-8.93,-30.79,40.89,8.03,-20.57,4.43,-24.05,-18.86,30.09,13.35,187.9
383,-8.05,-26.96,23.05,14.09,-0.06,1.69,-17.51,-14.69,6.53,-7.56,-31.9,35.82,8.02,-19.19,5.23,-27.82,-17.49,30.84,13.53,181.25
384,10.87,4.31,56.76,37.42,13.94,-1.36,2.07,5.57,31.48,11.94,-13.55,59.78,32.17,0.09,27.42,-7.44,1.17,47.87,30.17,109.91
385,-3.69,-21.54,41.08,34.04,7.85,-1.98,9.46,-1.41,11.98,-2.05,-24.5,54.46,16.61,-10.27,14.37,-15.55,-7.71,41.35,21.34,177.61
386,-32.15,-46.91,8.92,6.53,-14.95,-12.66,-14.6,-22.35,-18.23,-28.75,-51.08,21.58,-11.11,-37.13,-15.66,-41.21,-35.69,17.61,-1.61,208.05
387,-10.17,-23.79,29.17,20.8,-5.71,-1.67,0.61,-2.79,-0.63,-19.73,-41.45,37.93,6.09,-28.63,-0.8,-30.99,-24.61,24.76,6.46,125.31
388,-10.66,-21.52,36.13,20.43,10.68,-21.85,-9.45,-9.19,1.85,-17.6,-39.77,40.34,7.86,-24.14,-0.36,-25.72,-17.14,27.23,8.33,187.67
389,-8.99,-27.55,28.66,21.5,-7.52,-3.79,-8.66,-7.79,-0.2,-12.17,-34.54,42.76,8.35,-16.39,3.12,-19.0,-8.18,38.08,15.09,220.17
390,-1.83,-20.24,35.69,23.71,8.85,4.31,-2.06,-1.53,8.36,-10.45,-34.65,50.31,10.91,-18.67,5.92,-18.4,-9.73,35.32,14.36,145.35
391,2.84,-11.62,37.65,23.85,9.81,10.58,-2.14,0.13,15.85,-6.39,-31.1,56.9,22.79,-11.41,11.73,-8.28,0.17,40.54,17.92,133.67
392,-3.87,-18.86,28.31,18.47,-0.66,1.23,-5.86,-9.34,0.71,-16.94,-40.72,41.81,7.03,-20.0,-1.56,-17.0,-7.68,35.76,11.2,187.15
393,0.57,-15.73,37.32,24.96,-0.56,-2.87,1.45,-2.61,6.38,-10.77,-34.08,52.19,13.32,-13.81,5.81,-9.95,-0.78,43.22,17.18,161.07
394,-4.87,-21.97,33.28,16.89,4.84,2.74,-6.68,-9.29,4.18,-18.27,-43.46,48.77,12.84,-22.45,-0.72,-16.45,-8.38,30.67,6.34,99.15
395,-27.45,-45.49,5.63,-6.64,-20.93,-12.84,-34.14,-34.71,-20.96,-38.96,-64.01,27.54,-16.62,-42.63,-23.75,-37.64,-31.92,10.28,-14.54,172.12
396,1.24,-21.63,34.35,24.23,8.51,-2.78,-2.16,-8.97,7.61,-8.47,-32.46,46.06,10.82,-10.26,3.1,-7.03,-5.62,38.43,13.66,195.6
397,8.58,-9.4,41.3,22.08,12.13,6.52,-5.92,-4.61,19.56,-1.85,-27.63,56.51,23.9,-5.62,12.34,-0.98,2.26,44.91,17.71,107.84
398,7.13,-9.38,44.97,28.63,10.62,0.83,0.56,0.07,19.27,-2.86,-26.67,59.71,21.35,-7.41,9.78,-2.4,-0.86,46.02,18.96,151.28
399,-3.1,-18.16,30.73,26.68,5.98,3.08,3.17,-4.69,8.69,-6.71,-29.71,52.1,13.86,-9.38,1.35,-7.86,-8.02,39.79,15.46,212.05
400,2.89,-22.64,17.43,12.74,27.13,-5.95,-8.57,-10.55,7.47,-15.1,-38.31,48.29,11.29,-18.78,-2.16,-16.92,-16.03,29.99,5.29,118.4
401,14.58,-9.48,49.08,29.34,2.42,12.26,1.71,-0.99,20.37,-3.35,-27.21,56.55,21.48,-9.68,8.81,-4.43,-5.05,36.98,13.82,117.66
402,10.53,-6.42,38.47,24.76,15.58,15.67,-9.3,-10.18,13.07,-4.0,-27.44,45.09,10.63,-9.05,4.64,-8.34,-5.22,38.27,13.6,190.87
403,9.26,-11.36,41.75,27.0,7.75,2.62,-4.46,-7.83,19.16,-1.88,-25.75,62.05,14.24,-8.75,6.27,-8.35,-10.3,31.66,10.41,95.17
404,-0.95,-26.54,38.53,22.34,-6.41,-1.53,-4.49,-8.92,13.97,-9.28,-34.37,54.15,5.71,-18.5,0.36,-22.08,-18.16,25.29,1.85,86.93
405,-11.76,-34.9,25.54,12.99,-11.27,-6.19,-12.83,-17.96,3.26,-16.46,-41.63,36.26,-3.87,-23.2,-6.76,-28.1,-24.92,20.78,-2.72,155.53
406,0.86,-16.43,39.84,29.8,1.15,-3.0,3.95,-4.53,16.76,-1.71,-27.19,44.08,6.37,-10.68,5.34,-15.77,-13.55,32.78,10.68,155.44
407,8.26,-11.49,39.78,25.78,-3.46,17.75,-2.53,-1.36,20.33,-5.67,-31.42,45.15,7.52,-16.1,5.48,-22.3,-17.32,30.55,7.54,86.35
408,24.54,3.83,43.61,29.09,36.53,26.73,-1.82,5.42,29.91,3.23,-21.82,55.97,21.87,-4.77,17.19,-6.23,-6.47,42.66,20.9,126.37
409,5.46,-28.5,25.84,20.84,7.99,12.46,5.24,-2.51,8.67,-10.76,-34.94,41.22,-0.07,-21.27,-4.11,-24.59,-22.53,31.36,8.5,147.41
410,-5.81,-31.59,22.67,8.61,-11.91,-5.36,-7.65,-12.54,1.34,-25.34,-51.7,32.13,-15.57,-39.7,-21.18,-42.72,-43.81,10.35,-10.74,92.1
411,4.39,-14.18,27.63,11.84,11.39,-6.82,-1.82,-7.81,8.78,-21.84,-49.54,39.33,-9.51,-40.35,-17.29,-43.97,-45.29,12.17,-8.95,85.07
412,-9.24,-24.05,17.0,14.38,-6.83,-11.66,1.64,-7.83,1.82,-20.46,-45.94,23.84,-15.07,-37.08,-19.41,-44.25,-41.53,22.35,-0.82,163.94
413,-4.92,-37.94,14.12,8.97,16.52,-7.24,-5.07,-13.17,0.06,-26.27,-51.67,15.53,-16.97,-41.04,-25.83,-48.08,-46.23,14.51,-9.28,83.43
414,-12.95,-37.16,11.57,-3.38,-22.35,-23.04,-19.81,-22.42,-6.27,-39.42,-66.4,7.27,-28.23,-57.1,-36.1,-64.95,-65.99,-4.96,-24.11,12.97
415,-14.02,-30.39,16.72,3.58,-10.82,-8.18,-14.73,-19.45,-5.11,-32.05,-58.39,3.0,-26.89,-47.92,-31.51,-59.34,-61.8,4.43,-14.35,109.94
416,-5.03,-36.78,-3.33,-2.59,1.58,3.07,-19.72,-19.13,-1.57,-26.71,-51.84,18.38,-21.98,-36.59,-22.66,-51.94,-48.91,17.29,-5.61,108.53
417,3.45,-17.17,24.76,15.22,-6.53,6.87,-2.33,-5.15,11.42,-19.63,-45.98,25.99,-14.25,-37.31,-18.36,-52.03,-48.69,18.18,-4.32,58.0
418,17.12,-5.58,35.61,27.93,34.24,9.01,8.17,3.51,22.57,-5.27,-32.65,30.88,-5.59,-25.28,-7.49,-44.66,-45.54,27.21,7.18,91.04
419,19.68,4.6,57.76,40.06,4.57,18.73,9.91,7.01,33.43,8.37,-20.37,34.92,4.14,-14.41,-0.23,-34.58,-36.88,36.53,16.3,124.32
420,5.09,-5.63,52.34,28.46,12.68,-0.64,1.89,-5.87,19.1,-9.71,-39.47,20.06,-15.49,-39.24,-23.11,-58.54,-64.58,7.62,-7.78,75.31
421,12.15,-7.96,40.98,20.01,13.74,22.63,-7.24,-10.37,19.15,-11.74,-42.09,18.81,-11.61,-38.59,-19.96,-60.24,-62.44,6.76,-8.9,56.14
422,23.08,5.44,42.78,27.1,29.08,12.33,-0.31,-6.66,25.61,-1.26,-30.9,27.21,-2.11,-26.84,-13.53,-49.03,-48.47,21.57,3.63,142.03
423,19.48,-4.94,37.19,21.46,12.46,7.17,-6.33,-13.32,21.99,-4.17,-34.44,26.4,-6.11,-28.01,-13.64,-50.72,-51.16,16.17,-1.39,95.16
424,9.74,-25.92,28.89,13.88,3.74,-0.91,-4.61,-14.85,15.56,-15.51,-44.52,21.85,-15.95,-38.62,-17.46,-62.06,-58.99,9.53,-9.83,66.39
425,9.96,-11.46,29.55,16.73,13.36,-10.87,-4.74,-16.11,10.63,-15.61,-43.86,10.27,-21.67,-36.7,-20.52,-65.96,-62.49,11.66,-8.02,150.01
426,3.26,-17.33,14.12,9.59,13.45,-5.6,-5.47,-24.35,2.52,-21.26,-49.31,6.75,-33.12,-42.37,-26.75,-70.78,-67.71,2.65,-14.2,135.87
427,22.6,-0.95,46.39,27.0,27.26,25.44,0.08,-7.6,26.25,-2.97,-33.6,29.13,-9.22,-24.08,-4.44,-52.88,-48.39,15.45,-1.69,55.29
428,20.99,13.14,55.63,32.11,19.51,6.29,-0.15,-6.34,31.49,5.32,-25.5,28.95,-1.1,-15.19,2.04,-43.85,-32.94,26.3,7.53,113.46
429,18.38,0.42,52.25,35.7,19.71,15.8,11.54,-6.37,23.17,1.92,-28.44,18.9,-9.12,-20.04,-7.01,-46.87,-39.64,22.44,4.95,154.77
430,20.15,-2.19,40.95,23.54,5.96,26.17,0.59,-10.92,24.61,-3.54,-35.8,29.05,-7.83,-25.54,-7.57,-48.22,-42.66,19.98,-0.99,72.14
431,23.09,-4.31,43.73,23.82,33.68,0.52,1.5,-8.31,25.94,-4.57,-35.54,39.56,-9.83,-22.62,-6.03,-44.22,-38.35,23.51,0.96,85.79
432,5.22,-14.86,30.52,20.38,1.06,13.29,2.67,-12.13,12.2,-11.37,-40.88,22.75,-16.61,-27.27,-15.22,-44.7,-37.0,21.9,-1.89,152.46
433,6.03,-28.92,15.86,2.91,-2.16,8.89,-18.62,-26.51,0.96,-23.93,-55.35,14.54,-26.59,-41.8,-30.02,-53.09,-49.52,8.16,-15.45,124.03
434,17.34,-7.58,32.37,8.83,14.21,1.57,-8.85,-19.72,12.41,-22.74,-54.15,25.45,-16.49,-40.79,-25.97,-49.67,-48.47,6.59,-16.92,69.24
435,0.24,-22.4,18.22,2.06,-3.53,-18.61,-14.67,-27.77,-1.48,-28.9,-60.18,18.55,-27.29,-46.09,-32.35,-50.5,-51.34,6.61,-18.74,155.0
436,3.94,-24.72,14.89,2.0,24.87,8.67,-13.56,-28.93,-2.18,-29.37,-58.56,17.89,-30.5,-44.05,-33.61,-51.3,-47.46,6.41,-18.41,133.1
437,11.68,-5.54,43.11,14.76,1.71,10.1,-4.66,-15.41,13.37,-21.12,-51.7,25.47,-16.69,-37.85,-22.04,-45.99,-41.57,11.64,-12.88,63.8
438,16.37,-2.51,29.41,9.7,23.63,20.63,-9.13,-19.7,13.98,-19.47,-50.64,27.89,-15.4,-30.69,-20.33,-36.97,-32.9,17.52,-9.31,120.39
439,0.82,-27.33,8.09,3.42,3.38,15.31,-6.3,-25.94,-2.09,-26.88,-56.73,19.83,-23.38,-36.16,-29.27,-42.15,-38.05,12.6,-13.48,157.64
440,14.08,-15.89,29.7,10.35,15.11,-1.96,-4.16,-18.03,9.7,-22.2,-53.48,25.38,-13.28,-33.71,-21.1,-39.65,-35.97,16.53,-10.8,77.5
441,28.82,3.49,51.45,26.1,23.97,9.76,9.98,-5.17,25.8,-7.64,-38.9,38.89,4.35,-17.78,-5.3,-25.92,-18.23,30.09,1.1,78.19
442,7.54,-15.34,28.19,10.82,12.04,4.68,-6.83,-22.75,4.49,-21.1,-52.68,24.68,-9.37,-28.42,-19.87,-42.13,-29.32,19.75,-9.78,149.15
443,7.15,-22.35,20.08,6.15,18.31,-1.82,-13.26,-19.82,3.07,-21.81,-51.52,27.95,-10.5,-29.07,-18.8,-46.38,-35.57,20.44,-8.29,120.03
444,24.22,-4.34,38.08,23.68,13.97,20.03,9.04,-2.45,24.37,-5.02,-35.89,42.6,9.96,-14.13,-0.94,-34.34,-23.52,32.39,5.49,97.71
445,12.42,-10.43,25.48,10.71,15.5,15.22,-11.77,-19.16,13.27,-12.16,-44.65,30.56,1.45,-19.94,-11.09,-44.82,-32.63,26.43,-1.61,119.74
446,11.14,-1.32,44.62,24.62,22.41,12.02,0.04,-11.77,22.04,-2.57,-35.44,32.45,5.19,-13.2,-7.44,-39.85,-23.81,32.51,5.61,129.99
447,10.51,-8.42,37.08,18.6,1.03,6.41,4.18,-13.0,21.28,-10.34,-42.71,33.92,3.42,-20.87,-11.09,-47.35,-34.3,22.52,-3.69,45.23
448,19.52,-2.2,32.68,16.17,20.33,6.66,-0.48,-12.41,25.02,-6.1,-39.31,36.9,11.14,-15.64,-7.0,-41.64,-30.81,25.14,0.33,72.93
449,8.11,-16.3,21.96,11.17,18.75,10.38,-2.82,-20.95,13.23,-12.02,-44.26,25.39,-1.26,-22.61,-18.33,-51.99,-41.36,18.22,-4.54,135.7
450,17.89,-9.43,21.59,9.86,26.13,28.05,-15.76,-16.45,21.82,-8.63,-40.05,36.3,8.08,-18.02,-7.08,-47.21,-33.9,25.69,2.35,30.73
451,28.75,11.66,59.37,24.49,30.96,29.77,-7.69,-6.82,35.42,2.73,-28.58,48.85,18.33,-8.15,4.49,-36.89,-19.94,36.61,11.88,17.82
452,21.52,-0.74,42.9,30.64,20.99,12.45,10.32,-3.32,25.89,3.12,-25.63,52.51,14.71,-5.84,1.09,-34.54,-20.66,40.73,16.09,111.97
453,16.89,-2.48,35.16,28.12,8.56,15.37,7.5,-3.84,23.78,-3.64,-31.97,38.31,10.45,-15.17,-6.77,-39.76,-29.25,32.52,9.24,62.78
454,19.41,4.22,57.48,31.05,24.85,-1.15,10.01,-0.56,28.13,-4.57,-36.18,35.04,10.49,-21.52,-10.97,-43.06,-34.81,23.58,2.0,51.07
455,-1.23,-36.78,8.67,4.36,2.43,-2.02,-9.03,-19.33,-1.55,-26.53,-54.74,12.8,-7.61,-36.57,-31.52,-60.5,-53.03,9.11,-12.99,146.02
456,7.58,-14.81,25.19,17.65,-0.22,8.97,5.13,-10.35,9.33,-18.75,-48.84,24.25,-4.04,-33.31,-29.88,-54.98,-47.65,15.94,-6.91,136.68
457,19.27,5.57,41.6,27.38,10.18,17.3,10.44,1.69,23.04,-10.39,-41.5,39.27,7.88,-27.37,-19.37,-47.24,-37.88,22.55,-0.95,104.75
458,19.66,-7.97,36.41,24.83,5.75,7.33,4.0,1.86,22.81,-8.63,-39.12,43.16,12.62,-24.06,-17.19,-40.93,-32.18,24.9,1.96,131.94
459,-11.69,-33.87,16.67,3.69,-10.65,-2.74,-18.46,-24.99,-7.19,-35.24,-65.53,7.47,-22.74,-52.35,-51.37,-70.95,-60.0,-1.08,-26.79,170.25
460,-21.94,-40.14,14.03,1.62,-15.45,-18.06,-10.54,-20.22,-11.93,-41.57,-70.43,7.53,-26.06,-58.72,-54.34,-75.7,-63.04,-7.84,-32.77,109.69
461,-5.96,-23.14,22.75,9.32,21.47,1.09,1.18,-7.45,1.08,-32.32,-61.97,21.15,-12.3,-48.18,-42.79,-62.42,-49.56,3.0,-22.4,105.36
462,2.29,-15.67,24.02,12.25,5.33,10.26,1.75,-11.93,0.74,-27.25,-57.9,14.49,-11.92,-41.7,-41.56,-55.34,-40.65,8.01,-18.16,185.69
463,-1.47,-37.76,1.14,0.62,20.7,13.16,-2.06,-16.29,-6.95,-36.9,-66.59,11.28,-17.44,-48.6,-44.36,-61.29,-45.37,7.3,-22.61,135.33
464,13.81,-11.84,31.57,9.2,4.11,22.85,-7.31,-8.28,9.85,-25.43,-57.14,32.96,-0.74,-38.9,-29.05,-47.8,-31.0,16.08,-13.38,52.0
465,-7.07,-27.84,16.82,-0.81,-18.38,14.27,-15.47,-22.34,-10.73,-40.94,-71.7,13.52,-20.64,-54.48,-48.05,-65.0,-48.1,4.45,-25.61,157.57
466,-11.35,-23.8,12.59,-0.13,-3.3,-12.56,-9.41,-22.65,-12.25,-43.08,-72.76,9.27,-25.1,-56.74,-50.75,-65.93,-50.48,0.83,-26.49,166.32
467,2.64,-14.17,32.49,16.81,-11.76,-21.56,4.37,-6.95,5.85,-28.66,-58.3,25.05,0.04,-40.84,-31.4,-48.89,-34.35,10.74,-14.41,98.99
468,17.83,-10.49,34.78,27.41,15.64,8.79,11.65,5.32,15.48,-13.39,-43.12,38.61,26.35,-21.17,-13.81,-26.06,-13.8,33.07,5.15,109.42
469,33.12,5.04,47.66,39.49,35.98,22.97,14.71,12.92,29.35,3.39,-25.86,63.24,49.2,-2.56,1.24,-4.97,5.53,52.42,23.1,95.35
470,12.76,-11.89,36.99,21.87,19.27,32.17,-1.18,-3.29,12.91,-17.26,-46.02,40.66,29.51,-25.37,-19.53,-28.27,-19.33,27.05,0.5,-35.77
471,23.23,-4.71,35.71,17.55,2.05,-0.17,0.71,-3.62,11.96,-20.77,-51.75,30.36,24.66,-31.63,-25.57,-34.65,-30.27,18.25,-6.68,-116.77
472,15.5,-10.28,41.87,29.84,6.73,2.48,9.23,1.41,11.18,-12.33,-41.56,45.0,28.98,-23.45,-22.29,-25.49,-23.54,28.0,3.19,-113.69
473,16.72,-6.66,33.47,22.54,8.41,19.63,-5.46,-4.43,10.0,-15.66,-45.13,39.76,24.67,-27.46,-26.17,-32.22,-27.44,25.08,-0.07,-14.89
474,18.5,3.18,41.35,28.61,31.59,-2.27,9.91,7.29,15.13,-15.67,-45.18,40.52,30.85,-28.23,-22.6,-32.36,-28.92,23.36,-0.39,106.72
475,1.08,-9.58,35.2,27.21,27.97,13.73,11.3,0.47,3.67,-22.99,-52.07,27.51,18.1,-35.23,-35.93,-39.59,-38.13,17.39,-7.34,217.31
476,-9.22,-37.62,-3.15,2.79,3.45,-8.31,-9.36,-17.99,-17.24,-39.58,-66.22,11.6,1.79,-47.83,-50.18,-54.44,-53.75,1.72,-21.05,190.96
477,-12.02,-40.59,13.97,3.26,-19.49,-14.16,-14.11,-18.77,-14.14,-42.08,-69.91,2.96,3.83,-56.37,-52.46,-62.6,-62.53,-10.16,-29.14,68.43
478,-4.01,-27.9,15.31,7.2,1.33,11.7,-11.64,-14.14,-6.26,-32.4,-60.94,14.59,6.86,-47.16,-46.69,-57.7,-59.64,-0.27,-19.47,140.84
479,-4.33,-40.49,15.98,17.75,7.63,-5.25,0.34,-5.05,-7.82,-27.42,-51.87,21.42,11.77,-40.63,-43.05,-49.94,-55.63,8.39,-9.85,176.02
480,-5.3,-21.02,35.08,18.88,16.52,2.28,-9.5,-6.77,-6.91,-32.31,-55.85,10.07,5.87,-51.04,-47.53,-61.29,-62.52,1.59,-16.09,140.96
481,6.67,-11.63,42.19,33.1,2.33,-7.6,12.47,8.44,3.8,-23.48,-45.31,23.46,18.89,-43.83,-34.18,-52.56,-53.71,12.77,-5.36,148.81
482,-15.09,-24.28,24.81,20.47,-4.33,-1.81,3.49,-3.54,-10.15,-30.08,-51.39,15.29,9.04,-46.74,-42.87,-57.29,-61.16,6.84,-9.99,185.74
483,1.24,-13.84,38.32,32.89,7.33,-10.57,10.12,7.27,6.54,-14.03,-34.64,30.26,26.21,-28.71,-22.93,-39.39,-43.07,23.19,5.71,134.9
484,16.19,1.46,41.01,32.9,12.97,36.2,6.65,10.68,16.17,-11.1,-32.05,37.28,38.41,-23.16,-11.28,-31.13,-32.74,26.72,9.32,113.51
485,7.01,-0.46,34.12,24.18,14.83,23.7,-5.86,-3.25,7.17,-19.05,-40.18,27.7,26.82,-27.33,-20.27,-37.14,-39.29,19.24,2.07,165.89
486,-0.66,-18.82,40.12,29.03,5.04,-0.05,9.69,-1.7,0.34,-21.06,-42.69,28.08,21.68,-30.24,-23.66,-40.82,-42.5,16.98,-0.81,162.16
487,-8.1,-24.68,40.05,20.26,-10.68,-14.96,0.05,-5.92,-1.09,-28.55,-52.64,27.39,22.35,-36.56,-23.77,-45.66,-50.75,7.23,-9.98,107.38
488,12.97,-19.99,23.83,19.76,10.94,6.72,3.78,1.35,7.33,-17.44,-41.18,36.52,38.7,-17.66,-6.24,-24.78,-25.84,26.31,7.22,145.39
489,-13.17,-42.31,8.18,6.75,-13.27,-5.4,-10.78,-15.66,-15.59,-32.98,-55.24,22.73,16.5,-31.67,-27.43,-42.22,-35.73,13.36,-6.8,201.22
490,-8.06,-26.25,23.26,12.68,-7.56,-19.11,-6.02,-9.76,-8.12,-30.98,-53.98,23.94,19.88,-32.88,-20.58,-39.82,-32.46,15.59,-5.55,99.87
491,15.19,-19.78,36.02,28.66,1.23,14.86,4.37,11.53,12.95,-9.34,-32.07,54.1,49.93,-6.73,4.26,-9.36,-3.75,43.14,20.23,117.14
492,19.47,-7.37,42.05,36.98,31.59,-2.53,12.33,14.22,16.0,-2.62,-24.59,49.51,50.6,-0.33,6.68,-3.42,3.31,52.72,27.56,185.29
493,-3.19,-18.33,34.25,16.74,0.92,3.24,-6.21,-9.74,-1.4,-24.83,-50.66,32.59,26.07,-29.2,-22.17,-23.84,-19.55,23.65,-1.4,135.3
494,-17.23,-30.35,20.63,3.28,-9.81,0.58,-20.48,-16.88,-10.66,-37.35,-61.23,33.56,21.17,-39.22,-28.88,-32.08,-26.63,15.14,-11.26,119.25
495,4.59,-6.66,33.44,22.54,21.75,-5.51,2.53,0.79,6.24,-17.86,-42.31,49.87,38.33,-18.93,-9.82,-9.8,-0.69,36.96,9.23,176.6
496,-1.3,-22.78,15.18,4.05,-0.91,26.05,-21.92,-17.77,-6.16,-29.47,-54.84,32.54,25.38,-27.38,-22.24,-20.46,-14.69,25.27,-3.46,173.05
497,15.39,-17.79,23.45,16.45,19.1,2.85,0.78,1.17,4.3,-22.99,-46.51,39.29,38.23,-23.06,-12.38,-14.43,-7.6,34.49,4.95,146.51
498,5.44,-20.1,37.31,23.08,5.48,-6.63,-0.56,-0.14,3.89,-21.03,-45.25,37.28,33.31,-25.98,-13.49,-12.33,-5.49,36.66,6.54,143.21
499,-1.82,-17.8,38.3,22.2,-9.22,4.93,-2.01,-6.62,-1.97,-20.64,-45.95,34.16,25.29,-29.01,-18.79,-16.67,-10.75,34.11,4.94,169.68
500,-1.04,-20.16,29.16,15.89,7.07,3.65,-0.98,-4.83,-5.1,-28.3,-52.08,28.32,20.96,-38.61,-22.62,-26.78,-26.93,23.46,-2.83,109.91
501,-19.37,-25.84,24.72,7.59,-11.81,1.85,-11.4,-11.15,-11.93,-36.69,-58.98,13.17,13.48,-44.01,-26.05,-36.54,-34.32,17.16,-9.55,108.39
502,-25.05,-42.5,1.42,9.79,-9.55,-7.4,-5.39,-10.11,-20.45,-34.46,-53.38,16.69,10.96,-37.1,-25.05,-31.59,-26.07,27.64,-0.43,185.88
503,-9.27,-33.28,23.73,28.96,-10.83,-5.33,8.16,4.73,-5.14,-18.9,-37.47,30.55,22.5,-24.45,-8.71,-22.48,-20.52,37.06,12.34,132.18
504,-0.55,-20.39,42.88,30.21,-18.57,-1.98,-1.82,5.5,7.11,-11.23,-31.51,41.01,37.02,-16.2,1.31,-14.05,-13.71,38.34,15.76,109.98
505,-13.6,-18.3,31.84,20.21,-6.71,-23.89,-3.75,-4.82,-8.26,-23.06,-43.68,22.47,16.16,-28.93,-16.2,-31.76,-33.11,24.51,3.59,191.54
506,-25.34,-35.72,25.29,17.56,-29.25,-3.51,-4.79,-7.61,-16.52,-28.09,-45.83,14.42,5.64,-31.1,-19.48,-36.23,-41.92,19.9,1.61,166.89
507,-8.91,-22.56,36.03,25.0,3.95,-4.64,3.26,4.45,4.18,-13.58,-32.19,38.26,28.09,-14.97,0.19,-21.87,-26.8,34.38,14.86,97.95
508,-14.49,-26.07,21.55,14.66,-2.32,6.54,-11.73,-6.45,-2.81,-18.79,-37.28,40.62,25.46,-14.75,-0.52,-22.34,-24.15,36.38,13.86,117.05
509,-18.84,-35.1,18.11,15.77,-3.17,14.18,-5.54,-7.58,-12.14,-22.9,-39.79,20.1,15.72,-19.12,-7.54,-28.25,-27.8,33.35,11.32,174.1
510,-24.17,-39.38,26.55,14.57,-33.22,-28.56,-7.44,-6.5,-16.48,-29.67,-46.34,11.43,12.04,-28.62,-10.32,-37.03,-37.44,24.23,4.85,117.1
511,-31.93,-55.28,-5.42,-8.21,-7.65,1.73,-28.59,-21.08,-32.61,-48.79,-62.83,-1.92,-4.13,-44.56,-21.18,-52.86,-51.53,14.29,-6.88,90.05
512,-34.98,-57.15,4.23,8.78,-16.7,-32.55,-3.15,-8.52,-30.25,-36.53,-47.48,10.31,0.76,-29.92,-11.38,-41.79,-40.22,30.09,8.87,186.94
513,-9.83,-6.59,48.7,37.85,-6.51,5.9,15.22,11.63,1.0,-9.4,-23.57,28.37,27.6,-7.47,12.78,-18.48,-22.6,43.77,27.27,109.24
514,-2.56,-14.91,34.85,24.32,-15.93,-6.23,0.99,8.07,-0.74,-17.36,-31.65,24.22,28.33,-10.61,12.36,-22.1,-21.92,40.52,22.98,77.7
515,-1.18,-21.4,32.51,16.49,13.64,12.61,-12.57,-0.91,-3.11,-15.54,-31.01,33.88,27.09,-7.19,9.47,-17.01,-21.0,43.4,24.75,183.09
516,-11.78,-34.58,24.51,17.95,-19.77,-1.07,-6.56,-2.75,-10.93,-19.26,-33.28,29.43,20.96,-10.52,5.74,-20.64,-24.66,39.78,20.62,120.45
517,-20.24,-35.2,22.56,15.9,-16.63,-3.51,-0.64,-1.18,-18.52,-31.31,-43.78,12.28,9.73,-26.36,-5.05,-36.74,-39.25,28.11,9.67,54.4
518,-2.7,-18.78,34.3,23.36,21.7,0.37,1.68,6.32,-5.73,-18.27,-32.03,26.44,22.14,-13.46,6.99,-23.06,-27.43,42.13,22.52,97.91
519,-20.35,-33.43,28.25,20.35,-5.88,-7.05,-2.84,-0.1,-15.56,-21.36,-32.63,23.43,12.88,-14.01,4.89,-27.47,-25.15,43.07,22.68,121.67
520,-12.42,-26.36,30.95,21.02,-17.43,9.25,-2.67,2.41,-8.71,-18.81,-30.49,32.3,18.99,-12.13,11.18,-20.95,-21.35,44.15,23.02,52.06
521,-9.02,-26.82,25.35,16.45,-0.23,-4.29,-14.14,-1.02,-12.63,-25.35,-36.13,26.27,18.3,-15.42,9.73,-25.5,-21.37,41.23,21.05,48.69
522,-27.13,-33.22,28.04,22.96,-18.76,-12.51,-4.03,-0.79,-21.49,-25.41,-32.84,16.08,11.43,-18.82,4.82,-27.21,-20.87,43.43,23.22,102.93
523,-32.54,-33.89,16.97,15.26,-15.18,-19.0,-7.98,-4.53,-27.93,-32.99,-38.92,1.59,4.08,-27.97,-0.81,-36.23,-25.07,35.89,15.18,67.12
524,-22.9,-24.9,35.54,28.23,-14.87,-4.94,4.72,8.07,-17.24,-25.89,-31.82,10.16,12.43,-23.58,8.79,-30.42,-21.96,40.23,20.08,51.96
525,-36.87,-51.75,19.93,17.52,-19.86,-14.54,-7.66,-3.65,-29.8,-30.04,-36.03,12.21,3.61,-24.62,4.41,-31.95,-19.06,40.66,19.41,158.42
526,-35.78,-47.38,9.52,15.6,-12.22,-10.36,-9.77,-5.9,-30.63,-27.83,-31.96,15.34,3.52,-19.25,8.7,-27.9,-15.92,44.48,23.31,146.45
527,-35.13,-49.1,11.48,4.21,-24.17,-4.62,-19.06,-14.82,-32.9,-37.95,-44.39,6.97,-2.4,-31.49,1.99,-37.08,-23.09,28.44,7.99,55.05
528,-39.35,-54.53,7.26,5.86,-25.76,-7.89,-19.5,-12.2,-35.21,-34.93,-41.11,8.6,-0.86,-26.6,5.53,-32.05,-14.6,39.12,16.87,119.91
529,-37.84,-50.18,11.98,17.55,-28.97,-20.58,-6.3,-4.07,-29.68,-24.73,-30.41,11.48,6.95,-15.75,13.66,-22.33,-4.05,51.34,27.86,154.61
530,-26.75,-29.04,45.1,30.3,-23.61,-17.08,-2.71,1.75,-17.76,-19.65,-25.78,8.28,9.62,-15.18,17.62,-23.59,-4.22,49.67,27.94,86.65
531,-21.95,-30.8,41.93,35.32,-31.82,-2.01,8.61,10.61,-15.71,-17.13,-21.07,12.3,12.61,-11.03,24.12,-23.51,-2.48,52.7,33.83,119.9
532,-40.79,-44.14,19.98,16.47,-27.93,-14.28,-4.53,-6.98,-35.22,-33.71,-37.6,0.54,-6.08,-27.39,4.43,-33.74,-22.06,35.9,17.82,172.69
533,-46.47,-60.19,7.68,7.59,-31.45,-6.63,-10.98,-16.25,-49.27,-45.27,-48.74,-11.77,-21.71,-38.62,-7.51,-50.2,-39.73,21.04,5.38,126.05
534,-45.21,-57.23,13.27,7.08,-33.67,-11.11,-15.68,-9.93,-44.48,-44.89,-47.84,-14.4,-17.14,-38.68,-2.53,-54.25,-41.4,27.74,8.43,112.78
535,-50.62,-51.53,22.2,15.85,-32.43,-19.71,-7.24,-7.0,-41.67,-36.5,-39.08,-5.03,-15.45,-31.44,2.99,-46.46,-36.17,35.16,16.36,165.14
536,-38.82,-59.64,2.78,9.24,-11.66,12.18,-13.19,-13.01,-44.61,-37.6,-39.03,-13.25,-18.77,-29.52,3.79,-45.49,-34.36,34.75,16.48,167.59
537,-21.14,-39.9,23.88,18.31,-12.24,-19.43,-4.52,-4.78,-29.92,-30.97,-35.28,3.12,-6.13,-28.21,10.68,-40.57,-30.4,32.91,16.37,78.53
538,-29.94,-32.95,20.02,18.97,-14.36,-6.03,-0.2,-5.53,-29.89,-30.36,-34.87,2.1,-4.85,-27.55,8.64,-40.32,-31.25,34.56,17.95,143.89
539,-34.31,-39.27,29.75,22.18,-14.85,3.04,-4.7,-6.57,-32.02,-26.56,-31.32,-4.05,-9.51,-24.6,5.79,-41.05,-34.24,34.41,20.17,195.47
540,-34.12,-51.97,25.53,17.17,-24.13,-13.11,-5.88,-6.15,-35.53,-32.72,-37.18,-7.76,-16.19,-33.72,1.88,-53.58,-45.6,25.49,13.06,126.85
541,-31.07,-37.09,27.0,19.2,-11.67,-0.41,-8.14,-4.07,-28.59,-28.07,-32.0,2.58,-7.16,-29.45,8.05,-43.92,-37.23,33.45,18.08,106.04
542,-23.05,-20.82,46.4,44.25,-21.01,13.12,18.43,11.99,-17.64,-11.79,-12.92,6.82,2.54,-14.22,21.8,-28.97,-20.21,50.05,35.44,187.01
543,-46.8,-57.32,11.02,13.79,-16.3,-5.24,-7.31,-13.35,-45.09,-40.61,-41.0,-16.1,-27.6,-42.19,-4.38,-59.52,-48.53,21.37,7.34,138.39
544,-41.3,-51.53,23.14,16.09,-39.19,-23.16,-13.95,-10.45,-39.17,-37.44,-38.69,-12.05,-20.19,-38.17,3.28,-51.68,-38.44,29.03,11.89,115.06
545,-56.79,-63.15,5.24,2.75,-30.49,15.09,-24.58,-22.48,-54.83,-49.17,-49.46,-26.08,-33.49,-46.37,-6.71,-57.72,-42.91,22.08,4.8,176.72
546,-42.51,-71.22,-7.22,4.89,3.79,-5.29,-11.89,-15.67,-49.52,-40.94,-40.46,-10.31,-18.99,-32.8,2.64,-40.71,-26.29,34.25,15.42,149.9
547,-30.32,-35.89,20.71,19.46,-20.77,-19.52,4.64,-0.09,-34.0,-31.83,-33.92,-8.1,-9.21,-29.12,11.52,-34.71,-20.34,38.02,19.02,87.89
548,-37.29,-45.43,26.65,18.36,-25.68,-8.58,-9.62,-7.14,-39.53,-33.58,-36.04,-5.58,-13.4,-30.2,8.44,-36.49,-21.75,36.08,17.14,120.87
549,-41.58,-56.7,6.84,14.06,-8.07,-14.07,-7.42,-11.34,-45.63,-35.09,-36.69,-7.54,-15.42,-28.39,7.72,-28.96,-13.36,42.48,20.14,186.48
550,-28.8,-40.95,14.12,15.38,0.77,-18.21,-0.9,-4.74,-37.99,-35.64,-35.79,-1.2,-11.36,-30.04,13.38,-29.04,-5.02,43.74,21.31,92.01
551,-32.15,-38.97,35.26,21.82,-22.31,-13.84,-0.42,-4.3,-35.49,-34.41,-35.65,3.9,-7.33,-28.56,16.35,-23.99,-4.34,44.93,21.44,98.38
552,-54.63,-66.89,1.49,7.09,-39.61,-15.63,-10.86,-15.85,-57.13,-45.9,-43.19,-12.17,-19.68,-32.11,10.46,-27.29,-3.55,47.0,20.7,210.54
553,-56.01,-60.86,-6.5,-1.71,-34.93,-9.14,-18.63,-20.62,-60.53,-53.36,-50.54,-11.35,-25.81,-39.47,8.27,-34.01,-7.92,42.33,14.98,116.43
554,-47.25,-56.93,2.52,-3.46,-12.27,-9.1,-24.99,-20.59,-52.98,-50.35,-50.11,-6.83,-16.47,-35.03,15.2,-22.76,2.33,44.54,15.66,68.24
555,-62.9,-65.58,11.36,2.57,-48.41,-22.99,-18.01,-24.29,-61.73,-56.05,-53.83,-11.68,-24.65,-44.1,5.53,-26.03,-1.48,41.12,13.47,117.5
556,-44.09,-62.51,3.79,9.61,-24.22,-16.53,-10.94,-18.31,-57.22,-47.4,-45.25,-2.78,-15.54,-32.56,17.05,-11.94,12.44,51.75,21.88,131.98
557,-46.34,-66.47,-5.31,-3.74,-54.24,-7.99,-21.83,-23.84,-61.57,-57.44,-56.38,-4.8,-19.5,-42.82,8.77,-15.12,3.3,41.11,11.24,74.13
558,-42.47,-53.76,0.28,2.08,-16.86,9.66,-22.65,-15.28,-51.15,-46.93,-45.4,13.39,-4.96,-28.7,21.71,1.7,18.7,55.6,25.24,87.03
559,-53.54,-80.69,0.96,5.16,-51.37,-24.08,-17.82,-18.02,-63.21,-50.73,-48.09,9.31,-12.57,-33.09,13.9,2.95,16.56,55.49,24.12,159.23
560,-48.45,-69.69,-6.04,-2.21,-47.13,-15.43,-20.76,-19.54,-58.71,-53.45,-53.49,12.15,-13.58,-37.58,11.86,-6.36,8.99,47.26,15.66,84.78
561,-41.03,-61.99,-8.07,-2.98,-17.79,-5.78,-26.86,-16.74,-49.49,-45.86,-45.57,16.14,1.68,-26.97,25.73,1.58,20.1,56.94,24.59,94.44
562,-57.02,-59.54,17.15,15.71,-56.88,-37.72,1.29,-8.13,-51.33,-38.58,-38.08,6.35,-5.84,-23.11,22.99,-2.38,17.37,60.06,28.78,181.36
563,-49.49,-59.14,7.69,9.09,-40.83,-21.32,0.02,-10.18,-53.34,-44.71,-44.72,6.77,-11.43,-29.96,17.81,-15.03,8.7,52.25,22.31,152.86
564,-53.78,-69.09,-2.62,-4.36,-43.98,-30.26,-16.67,-18.2,-60.11,-54.3,-53.93,-7.55,-17.51,-39.3,14.2,-27.28,-3.72,42.0,12.16,134.92
565,-47.64,-57.27,10.2,12.73,-21.68,-13.73,-6.19,-5.67,-46.67,-34.68,-33.51,7.3,-5.05,-18.63,29.35,-11.61,13.32,64.84,32.54,224.76
566,-32.62,-49.99,23.21,24.48,-17.81,4.99,3.13,2.16,-36.62,-23.26,-23.45,20.42,4.81,-10.23,37.61,0.97,24.46,74.83,43.73,210.03
567,-38.23,-53.86,18.82,14.89,-19.1,-0.94,-7.35,-2.44,-40.42,-32.29,-31.79,9.89,-4.01,-19.91,31.05,-13.31,13.59,63.93,33.76,143.52
568,-44.29,-47.84,15.76,12.59,-22.83,-11.66,-10.59,-6.51,-46.62,-38.55,-36.65,-2.37,-9.17,-25.15,25.57,-21.04,7.92,59.67,29.04,172.87
569,-55.81,-68.63,-0.17,6.85,-44.09,-19.43,-12.35,-15.45,-62.26,-48.47,-45.41,-15.61,-22.42,-33.09,14.01,-34.57,-3.24,48.46,20.23,214.2
570,-54.36,-61.45,3.82,4.48,-39.3,-16.01,-19.03,-16.67,-56.76,-48.93,-48.31,-8.73,-19.19,-35.76,12.9,-41.3,-8.77,44.45,15.56,168.83
571,-55.06,-67.59,-15.59,-6.46,-19.4,-25.64,-24.27,-19.57,-59.59,-54.75,-53.61,-8.71,-15.16,-38.91,12.78,-42.42,-8.36,42.17,13.69,154.72
572,-50.12,-76.77,-11.55,-0.27,-26.99,-18.68,-20.09,-17.47,-57.1,-46.29,-44.75,-5.32,-9.14,-28.66,17.94,-33.07,1.42,51.91,23.61,223.09
573,-44.68,-59.01,8.9,11.91,-21.82,-9.86,-9.87,-11.57,-47.43,-39.7,-39.6,2.22,-8.17,-24.86,21.05,-26.36,1.83,54.17,24.63,156.06
574,-35.75,-50.55,21.46,12.24,-27.89,7.04,-14.61,-8.59,-42.6,-41.7,-42.12,0.99,-4.67,-29.88,21.69,-31.99,2.84,53.17,22.59,62.23
575,-33.62,-37.63,27.66,18.01,-14.54,-10.27,-9.82,-4.41,-36.79,-30.04,-31.76,6.83,1.37,-17.45,31.51,-19.74,18.47,65.63,34.81,100.18
576,-40.14,-52.11,9.69,15.89,-19.43,-12.52,-0.59,-7.75,-46.51,-36.74,-35.74,8.62,-5.99,-24.4,22.63,-26.85,9.92,59.69,29.11,5.39
577,-34.72,-48.86,22.9,16.17,-21.31,-7.95,-9.49,-4.84,-38.51,-33.68,-35.29,12.38,0.01,-22.02,29.88,-23.35,14.78,60.52,28.96,-155.84
578,-50.41,-62.46,4.84,3.16,-32.22,-23.18,-16.44,-14.95,-49.52,-42.79,-44.31,-4.17,-11.33,-29.81,17.96,-33.5,4.99,52.21,20.03,-34.09
579,-62.17,-60.58,9.55,3.0,-44.04,-21.98,-16.27,-20.88,-58.96,-47.17,-49.51,-11.13,-23.28,-36.61,9.24,-43.8,-5.52,45.14,15.38,168.62
580,-48.49,-58.64,0.91,-0.32,-26.81,-5.05,-15.21,-19.26,-54.15,-45.64,-48.85,-8.06,-16.17,-35.46,14.57,-41.83,-2.78,42.91,13.51,164.03
581,-50.94,-66.09,5.74,4.71,-16.98,-19.85,-11.79,-13.6,-55.37,-47.13,-49.94,-5.78,-14.34,-38.74,10.5,-42.25,-7.55,39.4,11.53,206.34
582,-57.89,-71.91,-2.86,4.01,-46.37,-11.52,-14.67,-16.11,-57.32,-44.96,-48.26,-0.49,-19.82,-36.64,8.22,-40.93,-3.78,42.91,14.43,214.69
583,-48.53,-58.61,4.01,6.31,-28.67,-16.94,-14.22,-16.38,-52.22,-43.94,-48.3,-10.12,-20.46,-38.83,6.76,-43.63,-8.64,40.62,12.74,152.16
584,-43.69,-51.78,30.34,23.7,-19.01,3.71,1.17,0.92,-41.29,-34.86,-37.24,-0.77,-5.47,-30.36,22.49,-30.19,8.1,56.05,24.62,135.06
585,-63.93,-70.98,-3.35,-0.98,-42.07,-6.18,-14.79,-22.54,-62.53,-55.5,-57.28,-18.27,-25.71,-48.77,0.14,-47.15,-8.83,36.88,5.51,190.12
586,-70.43,-93.37,-24.3,-15.6,-50.25,-21.58,-33.7,-36.05,-79.89,-67.52,-68.34,-31.81,-40.54,-59.15,-12.65,-57.8,-17.96,28.76,-2.79,199.84
587,-51.38,-56.56,15.3,4.87,-40.22,-3.82,-25.28,-18.82,-55.35,-50.75,-53.03,-14.84,-24.4,-46.3,7.96,-45.99,-3.82,42.91,10.68,137.64
588,-48.12,-64.86,10.51,13.78,-21.6,-17.07,-0.13,-5.82,-49.86,-40.91,-41.67,0.29,-10.54,-30.52,22.74,-28.99,14.02,57.93,24.47,191.75
589,-46.8,-74.03,-4.09,4.55,-39.93,10.55,-11.45,-13.7,-53.83,-40.8,-40.91,-0.46,-9.81,-25.65,23.06,-22.3,15.25,60.87,25.9,245.42
590,-61.18,-68.99,-0.14,-3.85,-49.42,-34.66,-16.93,-23.22,-60.64,-54.56,-56.64,-15.63,-26.06,-43.96,9.4,-45.23,-0.99,42.52,6.92,168.11
591,-40.02,-39.75,17.81,7.39,-24.89,10.04,-16.39,-15.12,-41.65,-37.76,-42.45,1.7,-7.69,-29.44,21.02,-28.28,11.6,52.41,17.74,158.58
592,-64.9,-67.77,-7.3,-11.91,-56.3,-24.57,-34.8,-32.94,-66.2,-57.12,-62.36,-24.52,-31.96,-49.91,-2.83,-47.97,-11.22,35.85,0.4,214.39
593,-76.97,-90.22,-13.88,-10.79,-72.23,-41.43,-14.16,-29.5,-78.11,-69.49,-72.98,-40.22,-45.63,-66.15,-16.6,-65.61,-27.61,23.67,-12.07,172.56
594,-74.15,-84.61,-18.28,-16.28,-56.1,-40.38,-18.18,-30.23,-74.66,-71.36,-75.95,-25.39,-40.52,-67.17,-16.57,-60.83,-28.64,18.24,-15.99,136.7
595,-81.86,-91.48,-13.37,-13.14,-60.05,-42.87,-20.55,-32.94,-78.5,-70.33,-73.62,-30.41,-42.1,-65.0,-16.37,-57.42,-23.8,21.23,-12.39,217.96
596,-69.25,-86.86,-6.19,-4.57,-46.87,-29.8,-15.6,-26.72,-69.49,-59.18,-63.74,-18.05,-31.6,-53.73,-9.31,-45.39,-14.32,32.44,-2.47,211.71
597,-71.69,-82.76,-17.73,-13.1,-72.97,-25.23,-20.38,-26.5,-73.71,-70.71,-73.32,-23.09,-37.79,-66.11,-16.79,-57.29,-26.53,21.96,-11.82,123.73
598,-60.62,-68.21,-5.25,-5.48,-43.58,-7.78,-17.15,-18.82,-58.71,-56.4,-60.19,-6.17,-20.88,-49.55,-0.77,-38.62,-10.21,35.43,3.0,157.78
599,-70.69,-81.02,-5.84,-5.93,-38.05,-17.02,-19.91,-26.71,-68.59,-60.63,-64.36,-15.76,-31.2,-55.05,-11.95,-41.73,-14.33,32.99,-1.91,220.83
600,-57.76,-58.07,11.68,-0.59,-48.39,-11.58,-17.4,-23.57,-57.15,-55.73,-63.22,-9.38,-25.01,-55.62,-8.46,-41.92,-15.29,27.87,-5.34,133.59
601,-54.64,-62.14,4.67,-5.83,-46.45,-23.69,-16.84,-24.21,-53.9,-56.06,-65.53,2.53,-22.0,-54.33,-8.53,-36.77,-15.26,29.27,-5.9,130.34
602,-68.56,-78.34,-9.51,-14.59,-50.13,-17.27,-27.99,-34.94,-68.14,-65.58,-73.93,-17.76,-36.4,-65.05,-22.86,-44.98,-22.49,25.19,-11.82,226.82
603,-59.29,-77.6,-3.76,-9.54,-54.38,-47.57,-22.61,-33.19,-62.29,-63.68,-71.6,-6.75,-32.35,-61.22,-18.35,-37.91,-19.1,22.96,-13.16,141.34
604,-56.85,-73.21,-3.65,-18.85,-49.53,-15.87,-31.14,-37.99,-67.07,-71.77,-79.11,-14.62,-35.41,-70.65,-22.1,-47.91,-28.89,17.48,-19.99,142.78
605,-39.43,-51.7,19.52,6.7,-29.59,-16.76,-7.55,-16.63,-44.61,-45.86,-52.79,6.58,-8.44,-43.72,-0.13,-17.38,-0.7,46.43,7.66,188.55
606,-64.18,-83.94,-18.29,-16.13,-38.63,-7.35,-20.1,-36.61,-72.01,-68.67,-75.26,-15.4,-36.87,-65.71,-25.92,-40.03,-20.73,25.58,-14.44,175.81
607,-69.27,-101.82,-36.64,-28.74,-38.37,-21.68,-30.47,-40.43,-78.76,-75.06,-82.47,-20.53,-38.72,-69.33,-25.23,-45.51,-23.24,21.4,-18.74,141.3
608,-59.89,-67.09,1.07,-8.32,-50.66,-19.29,-20.4,-31.69,-60.99,-59.22,-68.61,-1.16,-24.89,-58.88,-13.88,-30.6,-13.31,31.56,-8.27,152.31
609,-49.24,-66.95,10.1,4.56,-49.01,-28.13,-10.55,-25.87,-57.36,-49.57,-57.45,5.87,-22.08,-45.89,-7.75,-21.18,-3.63,41.83,1.86,182.07
610,-45.84,-69.23,-3.09,-8.43,-36.43,-5.92,-20.68,-29.04,-61.46,-59.7,-66.76,-0.62,-27.18,-57.43,-15.42,-29.46,-13.39,30.39,-8.06,112.7
611,-56.21,-67.72,-7.3,-15.22,-40.72,-20.27,-31.58,-35.61,-66.11,-69.11,-77.59,-7.8,-35.2,-67.01,-24.64,-38.49,-24.04,16.78,-20.09,115.96
612,-69.34,-81.6,-7.45,-6.67,-67.59,-30.48,-16.56,-32.84,-74.9,-66.17,-73.58,-17.74,-43.33,-63.49,-26.89,-37.05,-20.86,20.98,-16.12,202.32
613,-51.22,-62.27,9.12,5.77,-37.63,-21.27,-3.69,-16.11,-54.94,-50.63,-57.38,1.87,-25.86,-48.34,-9.25,-22.14,-5.7,38.02,0.13,143.43
614,-41.81,-59.89,6.0,-0.84,-33.53,-9.58,-12.17,-13.61,-48.17,-50.35,-59.1,7.24,-18.13,-47.03,-3.79,-20.5,-4.91,43.54,3.08,80.32
615,-55.65,-67.78,-4.13,-6.23,-42.18,-31.5,-12.24,-20.1,-60.8,-57.02,-65.92,-0.91,-29.73,-53.77,-17.15,-25.25,-11.3,36.93,-2.46,177.58
616,-67.16,-72.43,-6.55,-13.13,-51.64,-15.15,-21.68,-34.36,-73.18,-67.71,-78.56,-19.95,-48.03,-67.43,-34.33,-41.27,-28.85,19.53,-19.42,153.51
617,-57.84,-74.3,-15.1,-22.33,-59.64,-18.23,-34.5,-34.06,-65.53,-64.26,-75.5,-11.26,-36.73,-60.31,-23.66,-31.48,-21.94,21.63,-16.75,85.03
618,-51.55,-63.69,-6.53,-12.24,-33.93,-15.24,-19.57,-27.52,-59.76,-58.99,-70.02,-12.94,-34.73,-56.35,-23.18,-30.63,-21.5,20.65,-14.59,144.92
619,-51.93,-86.23,-16.73,-10.85,-45.8,-13.96,-19.09,-25.23,-60.98,-52.82,-64.21,2.23,-27.7,-45.66,-16.87,-16.59,-12.4,31.53,-5.13,151.11
620,-51.6,-60.44,10.08,-0.76,-62.73,-43.06,-12.36,-23.39,-54.88,-54.29,-66.11,2.89,-29.43,-54.57,-23.47,-23.73,-19.88,23.28,-12.43,71.92
621,-46.48,-46.27,19.87,3.28,-34.58,-26.23,-10.38,-16.68,-49.02,-50.84,-63.13,-0.92,-27.51,-53.64,-20.37,-25.2,-20.61,23.45,-11.1,92.28
622,-51.25,-69.85,-0.59,-4.69,-42.8,-13.8,-16.23,-23.29,-57.43,-52.32,-64.69,-5.54,-33.45,-52.05,-24.81,-21.07,-19.8,27.85,-7.11,146.31
623,-57.74,-75.92,-7.36,-11.74,-51.26,-11.53,-22.36,-28.58,-62.59,-59.97,-71.68,-11.54,-39.77,-59.53,-32.09,-29.1,-27.08,17.52,-16.01,81.19
624,-51.27,-69.3,-13.79,-11.43,-35.3,-19.81,-13.44,-19.89,-61.08,-63.67,-73.57,-11.15,-36.95,-63.23,-30.12,-34.4,-33.65,15.3,-17.91,36.78
625,-49.24,-60.29,7.93,4.15,-44.92,-18.28,-7.83,-13.02,-50.77,-47.41,-58.28,6.03,-25.67,-46.45,-18.43,-17.01,-17.71,30.49,-3.11,123.05
626,-58.42,-70.87,0.69,-3.07,-47.52,-40.67,-18.42,-22.11,-61.77,-57.68,-68.63,-10.26,-37.59,-59.31,-33.36,-32.56,-33.28,17.32,-15.78,103.14
627,-44.28,-59.22,6.62,-0.59,-44.63,4.55,-15.61,-13.05,-47.04,-51.49,-64.15,-2.07,-25.94,-52.36,-23.68,-25.42,-22.73,23.83,-10.54,-10.52
628,-53.12,-71.86,-11.36,-15.62,-45.61,-26.95,-28.81,-26.41,-58.14,-60.99,-74.97,-3.72,-36.56,-59.99,-34.47,-30.94,-30.19,16.74,-19.55,62.44
629,-69.63,-82.05,-10.66,-9.08,-60.05,-54.26,-19.39,-25.45,-65.96,-62.93,-75.59,-12.7,-45.12,-64.41,-41.9,-37.92,-34.29,18.41,-18.9,105.14
630,-46.83,-56.02,-4.63,-6.04,-35.04,0.82,-14.54,-16.7,-47.51,-51.92,-66.17,-1.95,-28.41,-55.82,-28.48,-22.81,-21.67,26.89,-11.13,15.02
631,-59.59,-84.83,-13.32,-14.59,-75.21,-31.98,-19.12,-22.34,-64.62,-67.77,-82.29,-18.94,-46.14,-71.63,-45.08,-38.6,-39.73,8.65,-26.35,99.13
632,-58.7,-63.31,16.66,2.47,-69.62,-15.86,-8.16,-18.92,-51.71,-52.97,-68.6,-3.68,-41.54,-59.89,-37.39,-27.24,-23.93,16.63,-17.03,135.63
633,-49.42,-73.67,-11.64,-7.78,-11.71,-28.16,-8.0,-22.37,-61.88,-63.76,-77.76,-10.61,-51.29,-69.67,-47.08,-32.44,-32.62,10.97,-24.82,99.91
634,-51.59,-69.62,-6.91,-8.37,-30.55,-3.7,-9.36,-14.72,-58.36,-63.99,-76.81,-10.49,-46.29,-71.04,-41.84,-33.31,-28.49,14.82,-21.89,73.86
635,-47.99,-51.97,5.75,-0.61,-54.08,-5.68,-7.14,-15.43,-50.49,-54.62,-68.93,-1.89,-38.83,-60.18,-36.05,-23.25,-17.65,26.11,-12.49,126.82
636,-49.75,-59.82,1.02,-5.8,-32.13,-15.16,-20.39,-21.65,-56.61,-56.59,-70.24,-9.46,-41.6,-63.72,-42.36,-24.99,-20.33,26.99,-14.09,128.05
637,-39.9,-56.49,1.33,-5.91,-27.92,-16.44,-14.72,-16.96,-50.79,-57.54,-73.11,0.27,-38.21,-66.21,-37.47,-25.09,-16.91,21.71,-18.11,27.17
638,-70.14,-93.92,-17.52,-21.92,-65.92,-34.29,-27.5,-34.98,-81.93,-82.13,-94.48,-23.26,-66.08,-92.77,-64.54,-53.43,-45.14,-1.48,-40.06,97.96
639,-59.83,-74.77,-6.61,-7.44,-25.14,-8.37,-19.29,-24.9,-68.79,-61.72,-74.02,-10.09,-48.4,-71.21,-45.76,-32.61,-27.17,20.07,-18.31,174.09
640,-44.53,-63.02,-9.24,-9.06,-34.88,-30.52,-18.2,-20.24,-57.18,-59.48,-72.34,-4.4,-39.42,-63.44,-35.45,-25.03,-18.27,24.23,-15.27,84.93
641,-38.45,-47.86,-3.57,-3.85,-41.43,-26.21,-8.6,-11.47,-52.4,-56.18,-69.03,4.91,-35.52,-61.42,-31.07,-24.47,-16.53,29.3,-10.46,76.6
642,-50.18,-70.16,-11.17,-11.2,-46.83,-15.98,-20.21,-20.6,-62.05,-60.59,-71.39,2.91,-42.42,-60.83,-34.86,-21.66,-16.85,32.14,-11.39,158.92
643,-54.8,-62.85,5.0,-7.22,-47.61,-19.87,-22.73,-21.82,-62.73,-63.69,-74.91,-6.58,-48.59,-65.5,-38.48,-28.21,-18.31,27.31,-16.2,90.36
644,-58.15,-66.59,-3.65,-12.12,-51.58,-23.41,-26.5,-21.19,-65.27,-69.8,-80.35,-3.62,-46.44,-67.94,-37.19,-32.11,-20.65,26.61,-17.76,105.43
645,-40.55,-70.72,-17.64,-19.56,-20.21,17.04,-35.38,-23.4,-64.14,-65.78,-74.49,0.93,-39.3,-59.86,-29.81,-20.47,-8.42,38.58,-7.68,165.68
646,-54.99,-82.03,-20.22,-10.95,-39.11,-32.67,-11.43,-15.04,-68.7,-65.96,-74.49,-1.73,-44.13,-60.2,-34.06,-21.5,-10.26,37.38,-7.41,129.03
647,-58.08,-73.68,-2.82,-5.44,-42.35,-51.7,-2.98,-11.03,-69.43,-72.92,-82.04,-7.5,-52.19,-75.8,-44.72,-38.34,-27.82,19.25,-22.57,87.26
648,-47.05,-69.46,-4.97,-4.86,-51.97,-24.56,-8.14,-10.61,-62.74,-65.62,-76.11,-2.45,-45.19,-68.67,-39.66,-25.18,-21.56,27.21,-15.53,107.89
649,-56.92,-80.21,-27.62,-14.52,-36.61,-27.64,-15.3,-20.31,-75.22,-72.23,-81.52,-7.35,-56.04,-72.96,-52.31,-32.31,-22.12,21.95,-20.68,152.83
650,-50.23,-72.43,-15.27,-15.65,-49.2,-37.1,-22.02,-20.87,-71.67,-75.17,-85.32,-1.98,-55.75,-79.74,-53.28,-37.4,-32.41,12.66,-28.4,82.77
651,-44.99,-64.0,-8.17,-16.58,-32.28,6.7,-31.74,-18.55,-66.3,-69.53,-80.11,-2.78,-47.24,-73.72,-44.14,-30.58,-25.56,22.83,-19.62,81.54
652,-49.67,-74.21,-21.65,-15.14,-25.65,-21.38,-17.24,-18.56,-75.51,-72.73,-80.67,-12.02,-56.0,-73.9,-52.41,-33.8,-28.72,23.92,-18.45,196.33
653,-47.09,-66.68,-9.24,-11.88,-39.0,-24.82,-19.22,-18.44,-69.0,-68.81,-77.61,-8.2,-49.8,-70.69,-47.32,-32.23,-28.94,23.45,-17.52,118.5
654,-40.13,-49.42,3.49,-1.07,-14.93,-26.96,-5.36,-5.29,-55.65,-61.73,-70.52,7.39,-39.68,-66.18,-38.18,-26.08,-20.59,30.07,-11.64,62.48
655,-49.46,-56.24,9.86,2.02,-37.66,-15.97,-1.1,-8.32,-62.74,-64.37,-73.55,-0.66,-48.94,-70.01,-47.98,-30.92,-27.92,23.94,-17.41,138.15
656,-58.47,-79.35,-10.69,-12.41,-42.52,-20.89,-17.51,-20.09,-74.93,-71.82,-80.65,-15.85,-56.76,-75.41,-55.72,-41.81,-36.76,18.34,-22.91,133.55
657,-47.89,-63.93,-7.27,-14.03,-43.46,-26.72,-26.44,-21.75,-65.25,-69.31,-81.56,-8.42,-52.28,-75.53,-53.71,-39.03,-35.73,14.3,-27.85,58.16
658,-53.95,-78.18,-16.37,-17.87,-54.47,-36.6,-19.47,-23.24,-74.45,-75.86,-85.7,-13.29,-55.64,-80.18,-59.1,-43.94,-36.48,8.98,-30.64,108.2
659,-53.55,-71.81,-6.87,-10.01,-39.17,-28.3,-14.91,-23.0,-75.17,-69.32,-81.13,-23.51,-60.19,-76.04,-60.31,-44.9,-39.39,14.15,-26.0,145.72
660,-55.88,-75.07,-21.39,-23.72,-42.68,-9.12,-31.96,-28.78,-71.69,-69.9,-84.19,-15.62,-57.83,-72.23,-54.7,-41.21,-36.63,12.32,-28.98,64.31
661,-35.77,-48.5,0.36,-2.72,-25.12,-24.84,-9.76,-12.4,-52.24,-55.07,-69.97,2.92,-39.6,-59.77,-38.72,-28.5,-26.87,23.29,-16.13,61.15
662,-41.87,-61.02,-2.37,1.3,-14.11,-11.39,-10.87,-15.14,-54.38,-48.27,-61.38,5.17,-37.77,-48.87,-34.48,-20.21,-16.5,31.23,-9.54,113.87
663,-37.24,-59.77,-10.19,-4.44,-23.92,-23.35,-15.45,-18.32,-53.4,-47.82,-62.04,8.39,-35.72,-49.09,-34.13,-20.52,-18.31,27.87,-12.08,69.94
664,-42.11,-59.1,-9.86,-13.95,-40.21,-7.5,-29.89,-25.45,-60.35,-57.12,-72.0,-7.2,-44.13,-60.41,-39.45,-36.77,-27.41,18.31,-22.91,25.35
665,-46.69,-73.26,-19.4,-23.1,-20.26,10.04,-42.28,-37.61,-68.08,-60.73,-75.36,-8.28,-51.61,-59.98,-46.52,-33.54,-32.9,10.54,-27.64,105.3
666,-45.58,-69.53,-10.96,-8.61,-14.65,-15.06,-17.57,-21.43,-59.67,-50.62,-64.33,-1.29,-44.34,-52.66,-39.01,-27.33,-26.18,19.42,-17.6,110.84
667,-33.82,-42.73,17.03,13.69,-12.34,-8.6,5.14,-1.52,-41.17,-37.21,-52.49,12.14,-27.23,-42.76,-27.89,-19.29,-20.47,26.99,-9.29,56.87
668,-36.21,-41.96,25.55,12.13,-24.12,-12.45,-2.2,-5.69,-40.27,-37.65,-53.35,7.08,-31.05,-43.47,-29.45,-20.37,-19.21,26.09,-9.95,96.48
669,-65.51,-80.38,-17.53,-16.58,-53.59,-46.47,-23.89,-30.57,-74.7,-65.08,-77.78,-19.77,-61.21,-64.72,-53.86,-46.78,-46.37,3.93,-30.92,155.12
670,-61.75,-74.03,-6.45,-13.77,-29.93,-26.89,-25.04,-27.32,-67.6,-62.7,-75.68,-13.99,-56.74,-62.6,-48.88,-46.27,-43.75,1.14,-30.61,107.42
671,-41.16,-55.42,2.99,-10.15,-30.79,-23.06,-29.93,-22.03,-52.89,-51.56,-66.52,-6.15,-40.55,-50.69,-34.07,-33.25,-28.48,13.32,-20.34,78.57
672,-41.11,-58.26,3.06,3.89,-46.5,-25.24,-3.19,-8.46,-51.32,-40.31,-53.24,5.02,-34.59,-37.94,-25.74,-24.04,-18.62,29.15,-5.16,168.59
673,-39.65,-58.07,-1.15,-3.07,-13.0,-5.71,-11.95,-14.3,-52.98,-46.13,-59.84,5.76,-39.33,-46.53,-31.56,-28.2,-26.18,22.94,-10.61,137.34
674,-31.39,-52.96,2.56,-6.26,-22.98,-25.34,-21.01,-8.34,-44.52,-44.66,-56.29,3.97,-29.03,-42.48,-20.72,-22.08,-19.86,31.55,-2.75,83.58
675,-49.5,-61.94,1.42,-1.82,-33.75,-12.07,-11.35,-11.47,-55.67,-48.82,-59.08,-8.6,-42.88,-48.67,-32.36,-29.01,-26.44,25.58,-6.73,152.08
676,-74.72,-100.14,-37.26,-35.09,-48.25,-21.24,-48.89,-45.24,-87.69,-78.96,-88.7,-37.41,-73.85,-77.39,-63.86,-61.64,-61.75,-6.95,-37.52,167.27
677,-42.89,-59.01,1.78,-2.46,-40.45,-19.17,-22.31,-12.63,-48.29,-45.98,-56.47,-3.89,-36.81,-45.4,-26.36,-31.24,-28.76,22.7,-7.22,67.6
678,-49.22,-77.48,-36.73,-23.04,-29.17,-16.06,-31.84,-21.1,-61.22,-53.45,-63.84,1.07,-42.17,-49.08,-31.42,-34.01,-32.06,21.29,-11.64,116.96
679,-75.25,-86.9,-14.63,-19.77,-52.41,-36.55,-37.2,-31.07,-77.55,-62.97,-71.02,-30.04,-61.86,-64.31,-48.63,-52.14,-49.91,7.86,-22.05,129.15
680,-78.48,-89.47,-24.32,-27.09,-69.66,-57.52,-35.67,-33.67,-80.01,-73.14,-81.43,-30.51,-64.87,-72.41,-52.44,-58.53,-55.12,-2.04,-32.05,57.92
681,-66.71,-75.59,-8.08,-13.16,-45.62,-33.14,-23.54,-19.51,-67.88,-62.74,-70.92,-20.39,-53.15,-59.28,-37.85,-43.5,-36.38,12.81,-20.26,17.57
682,-58.96,-77.65,-15.15,-14.32,-49.03,-42.95,-27.96,-24.13,-69.4,-60.84,-68.89,-12.92,-49.36,-53.79,-37.37,-35.86,-33.83,16.87,-15.78,11.83
683,-29.2,-52.25,14.09,14.39,-31.39,-14.22,-1.69,2.98,-42.79,-34.68,-41.84,19.7,-21.23,-29.93,-12.11,-5.46,-7.02,44.69,10.35,-99.88
684,-16.82,-35.83,23.77,16.85,-3.06,-15.96,-1.52,2.62,-32.95,-35.37,-43.79,24.02,-15.41,-32.94,-11.68,-0.81,-5.99,40.48,4.74,-193.63
685,-59.31,-83.18,-23.93,-21.29,-45.6,-47.44,-30.67,-30.79,-74.78,-70.67,-78.0,-5.79,-51.42,-64.33,-45.32,-28.38,-35.62,10.53,-24.19,-38.35
686,-50.44,-78.1,-11.13,-8.75,-42.93,-34.63,-15.82,-20.87,-65.93,-59.88,-67.09,2.91,-44.16,-55.21,-38.14,-17.6,-25.53,22.19,-15.7,128.99
687,-55.19,-72.67,-7.15,-13.4,-42.32,-29.97,-24.02,-23.2,-65.21,-67.55,-75.64,-1.09,-47.29,-62.49,-37.55,-26.12,-32.59,11.97,-24.5,124.07
688,-51.88,-67.5,-7.64,-13.25,-56.26,-32.95,-30.0,-22.57,-61.86,-59.94,-67.89,7.42,-41.16,-51.01,-25.33,-16.03,-16.75,23.99,-14.13,149.24
689,-41.98,-63.98,-20.29,-16.01,-20.38,19.51,-32.62,-27.36,-63.27,-56.77,-63.92,1.71,-41.49,-43.2,-22.4,-13.79,-13.29,30.73,-8.66,194.67
690,-30.71,-66.66,-21.76,-16.15,-13.76,-15.11,-29.35,-25.54,-58.59,-55.85,-65.64,3.9,-34.03,-44.24,-17.11,-13.7,-13.41,26.12,-11.17,84.43
691,-50.48,-71.94,-16.41,-16.99,-47.76,-45.45,-24.34,-27.48,-68.93,-66.54,-74.95,-15.11,-48.9,-56.67,-27.3,-30.28,-25.54,15.04,-21.68,83.07
692,-54.0,-72.31,0.7,-6.58,-25.12,-23.82,-22.02,-24.37,-66.76,-57.87,-65.42,-5.61,-47.69,-46.56,-21.48,-27.9,-19.44,26.51,-11.02,158.05
693,-50.91,-63.84,7.68,-3.24,-35.81,-16.83,-23.06,-19.16,-59.2,-50.04,-56.72,-2.05,-39.49,-37.09,-8.92,-20.39,-6.26,38.12,-1.72,123.93
694,-35.28,-54.48,7.12,0.97,-17.61,-4.98,-15.97,-9.82,-44.98,-40.95,-47.51,8.27,-19.49,-23.49,8.25,-8.53,7.14,48.62,8.92,99.74
695,-38.37,-46.83,15.94,2.99,-9.48,-33.83,-14.84,-15.73,-46.27,-41.65,-49.11,7.66,-23.78,-27.64,0.49,-18.39,-0.13,45.34,5.16,146.09
696,-69.63,-78.24,-13.86,-14.38,-41.21,-45.55,-27.15,-32.44,-72.75,-62.52,-66.93,-27.7,-51.88,-46.57,-19.34,-46.1,-21.26,23.18,-12.31,147.37
697,-31.93,-47.63,12.9,6.27,-17.3,-19.07,-12.01,-6.05,-40.79,-36.75,-41.48,10.01,-16.49,-21.46,11.18,-22.75,0.53,46.6,11.42,96.61
698,-46.36,-67.3,-15.4,-17.1,-39.97,-22.67,-40.1,-25.06,-58.85,-51.85,-56.26,-5.96,-28.56,-33.6,0.08,-36.98,-13.54,35.54,0.63,134.4
699,-54.66,-72.76,-4.87,-6.82,-22.7,-26.54,-29.01,-24.71,-63.27,-49.3,-52.63,-11.94,-37.31,-33.58,-5.48,-42.0,-20.16,33.9,0.87,177.0
700,-41.37,-63.38,-4.95,-8.59,-23.75,-10.97,-30.72,-20.98,-50.98,-44.73,-49.68,-4.93,-26.9,-30.62,1.11,-41.94,-18.46,33.43,2.0,105.55
701,-27.02,-33.88,22.95,11.76,-13.39,-5.44,-16.91,-2.21,-24.93,-21.16,-26.76,18.47,-3.24,-9.05,23.34,-19.14,2.87,52.77,22.11,109.64
702,-45.01,-59.53,1.67,11.13,-36.62,-33.92,-6.39,-5.89,-42.91,-30.05,-32.29,4.86,-17.99,-16.84,9.07,-28.71,-8.94,46.3,15.5,191.51
703,-56.29,-68.75,4.69,1.39,-58.85,-37.22,-17.82,-17.66,-51.35,-43.49,-47.97,-12.4,-32.57,-33.8,-7.43,-49.64,-25.68,25.67,-3.7,107.28
704,-54.93,-75.25,-11.69,-16.51,-32.4,-27.16,-49.06,-29.41,-57.47,-53.41,-57.42,-15.48,-36.47,-41.76,-9.55,-56.65,-34.34,20.41,-10.3,73.71
705,-47.99,-55.29,20.43,11.77,-39.61,-33.22,-11.62,-11.21,-46.24,-37.05,-41.5,-3.7,-26.75,-30.12,-0.39,-45.55,-24.77,34.66,4.83,145.48
706,-56.84,-63.84,2.67,-0.8,-45.3,-33.8,-24.68,-22.91,-60.38,-48.87,-52.06,-17.76,-42.88,-44.23,-13.99,-63.42,-42.96,22.31,-6.85,122.87
707,-49.18,-50.65,10.19,8.97,-33.95,-42.39,-13.77,-8.2,-44.94,-36.73,-38.94,-5.88,-24.56,-30.89,4.7,-53.66,-31.21,31.61,3.69,66.73
708,-33.87,-37.65,33.26,26.0,-25.65,-23.06,-3.59,6.89,-24.95,-14.83,-19.07,13.28,-4.23,-7.52,25.36,-32.53,-9.98,55.07,25.78,122.1
709,-23.7,-21.75,40.33,37.11,-2.14,-7.42,6.32,11.79,-18.0,-3.35,-6.79,19.79,0.71,3.39,32.31,-22.9,-4.02,66.04,35.67,135.03
710,-22.67,-27.59,31.9,30.92,-2.98,-13.6,2.33,7.98,-24.35,-13.18,-17.05,14.64,-4.53,-7.07,23.11,-34.65,-18.09,52.8,24.38,94.91
711,-27.23,-30.91,35.01,23.64,-16.01,-29.63,-8.27,1.55,-25.67,-20.16,-24.23,10.55,-5.93,-12.54,19.67,-38.29,-22.87,45.05,16.33,77.81
712,-52.28,-60.53,11.93,9.73,-29.98,-32.84,-16.62,-15.83,-49.24,-35.03,-37.75,-7.55,-26.71,-25.69,-0.02,-50.46,-37.87,29.13,1.27,130.15
713,-47.33,-63.15,7.76,2.98,-27.14,-28.01,-27.4,-18.63,-49.61,-36.56,-39.14,-1.69,-25.07,-27.48,1.32,-49.34,-36.27,30.23,1.05,86.77
714,-22.52,-41.92,10.86,7.33,-27.28,-26.24,-21.52,-5.72,-30.06,-26.32,-29.86,16.91,-7.47,-14.06,19.03,-31.72,-22.17,43.68,12.89,47.56
715,-30.15,-49.59,-0.12,8.12,-17.16,-10.22,-13.76,-6.29,-35.87,-26.99,-28.56,21.61,-7.48,-10.89,15.35,-29.34,-21.58,44.73,15.37,136.99
716,-39.74,-52.09,7.3,3.1,-8.37,-20.8,-20.78,-16.69,-44.41,-32.2,-35.56,5.42,-18.19,-20.0,8.7,-39.7,-25.13,38.86,8.13,120.63
717,-28.7,-39.4,16.58,6.3,-18.09,-11.68,-18.54,-11.33,-33.47,-26.79,-31.8,14.15,-7.88,-13.64,17.61,-31.51,-18.15,41.38,11.2,59.45
718,-39.1,-47.49,17.9,10.2,-20.69,-39.09,-11.06,-7.7,-41.91,-31.35,-34.77,9.93,-10.55,-16.12,12.53,-31.9,-24.74,37.53,8.68,109.24
719,-51.03,-59.73,17.6,9.94,-20.21,-30.65,-8.33,-12.53,-51.75,-35.5,-37.84,-0.99,-20.93,-22.28,2.94,-39.12,-30.04,32.96,3.73,115.75
720,-44.15,-61.72,5.93,-0.64,-17.15,-20.62,-19.68,-17.76,-51.38,-43.04,-45.44,-1.75,-26.2,-29.76,-1.38,-43.96,-34.53,26.93,-3.11,36.68
721,-28.34,-42.98,16.6,7.33,-19.03,-17.68,-16.55,-9.26,-39.34,-34.65,-37.03,9.56,-14.65,-19.84,9.72,-33.15,-25.47,36.05,5.41,68.43
722,-28.64,-53.54,1.53,-1.06,-1.49,23.48,-30.2,-16.57,-45.22,-32.87,-35.12,7.46,-16.75,-13.97,10.96,-26.04,-18.31,46.29,12.3,129.4
723,-34.18,-49.55,-2.58,-2.07,-14.95,-6.7,-19.37,-16.65,-48.01,-38.44,-42.35,10.03,-24.01,-23.14,1.62,-35.7,-29.47,35.1,4.42,61.39
724,-47.42,-43.47,8.87,-2.56,-28.33,-53.37,-20.92,-22.38,-49.78,-46.78,-51.77,-5.79,-32.97,-36.91,-5.58,-51.22,-44.41,18.35,-10.42,19.7
725,-52.93,-54.57,7.69,-1.84,-21.59,-19.0,-19.26,-27.58,-54.76,-48.19,-53.05,-19.46,-40.23,-40.46,-15.02,-59.26,-54.64,11.27,-14.18,102.99
726,-50.07,-63.88,-0.54,-4.24,-13.23,-22.3,-23.52,-27.84,-54.27,-46.2,-50.45,-16.49,-39.25,-36.79,-14.98,-53.45,-53.06,13.74,-11.01,87.95
727,-13.86,-33.83,14.76,17.03,22.16,-6.98,-4.32,-1.09,-21.8,-19.87,-24.47,17.47,-0.98,-9.14,18.35,-24.27,-23.47,42.81,14.78,-15.01
728,-51.29,-57.04,9.99,-4.84,-31.95,-14.32,-40.22,-29.69,-51.55,-46.32,-51.5,-14.2,-34.41,-40.22,-12.91,-56.43,-57.37,13.57,-12.28,64.54
729,-26.27,-37.01,27.58,22.93,-10.34,-18.3,-3.95,-8.06,-31.26,-21.57,-24.67,2.45,-14.14,-11.59,7.68,-29.91,-31.75,37.95,11.05,64.45
730,-19.72,-35.23,27.84,21.25,-17.92,-20.04,-8.09,-5.91,-17.77,-14.0,-20.86,22.53,-3.88,-6.26,16.67,-22.62,-26.85,41.4,15.02,-0.11
731,-17.35,-30.44,32.28,19.21,-2.03,-4.98,-10.25,-4.58,-13.43,-10.77,-19.58,20.86,-1.87,-4.04,18.79,-25.43,-27.66,39.85,15.11,9.65
732,-30.88,-43.22,13.42,15.49,-10.38,-5.02,-10.96,-8.47,-22.47,-11.29,-18.95,9.96,-5.8,-1.82,15.76,-28.61,-26.51,48.54,18.81,38.95
733,-24.0,-15.94,39.84,27.21,-14.04,-27.68,-8.97,-2.82,-9.57,-1.92,-11.44,21.63,-0.43,2.82,22.16,-23.47,-19.71,52.88,24.86,2.48
734,-34.13,-34.67,28.85,14.95,-15.05,-21.37,-17.63,-12.54,-18.93,-17.06,-28.54,8.16,-9.61,-14.38,8.17,-34.71,-32.93,33.43,5.49,-24.26
735,-53.54,-58.82,1.14,-3.38,-43.28,-22.77,-33.99,-29.55,-40.12,-31.37,-41.33,-7.88,-25.0,-26.98,-5.86,-47.12,-45.69,23.72,-3.45,33.18
736,-27.22,-29.91,38.41,31.49,-19.4,-19.88,-5.46,-3.22,-16.31,-5.5,-13.22,8.17,-7.59,-4.17,16.35,-27.32,-21.16,53.26,24.25,54.41
737,-27.71,-34.18,27.78,17.01,-15.44,-20.07,-16.52,-9.76,-16.85,-16.92,-26.11,6.43,-11.91,-16.59,10.25,-37.32,-32.53,38.46,9.54,-25.72
738,-24.54,-34.02,27.16,19.4,-9.92,-25.23,-14.75,-6.52,-15.58,-10.31,-18.67,6.13,-5.21,-5.36,21.66,-25.45,-21.09,49.82,19.46,36.01
739,-23.8,-29.6,21.96,24.57,-4.4,-18.63,-2.84,-4.87,-19.66,-8.85,-15.12,10.97,-8.31,-1.84,21.1,-23.69,-14.79,55.46,24.19,95.24
740,-15.03,-30.26,16.44,18.81,13.36,-21.5,-10.31,-5.63,-12.17,-9.02,-16.93,24.1,2.68,1.21,29.07,-17.06,-8.18,57.43,24.45,1.89
741,-16.08,-21.13,44.97,28.26,-3.97,-23.61,-2.6,-0.92,-9.49,-8.47,-17.93,16.65,0.99,-0.94,25.72,-18.8,-13.32,55.72,22.88,23.63
742,-47.7,-54.19,-0.74,-7.41,-29.55,-22.18,-36.3,-34.17,-50.15,-45.09,-51.5,-13.21,-36.04,-34.66,-10.62,-51.01,-42.87,24.39,-7.74,104.09
743,-43.86,-52.88,5.27,-2.42,-35.44,-29.2,-27.85,-31.25,-45.23,-41.4,-47.67,-8.08,-30.15,-31.21,-3.04,-45.6,-37.33,26.12,-5.68,56.66
744,-35.96,-39.24,19.13,9.67,-26.59,-25.65,-13.6,-13.55,-31.02,-30.84,-35.32,3.45,-10.48,-18.59,14.74,-31.9,-17.12,45.41,9.66,34.81
745,-48.27,-59.87,-10.85,-11.18,-31.72,-28.91,-33.16,-31.14,-48.43,-46.46,-49.75,-6.67,-26.43,-28.25,2.63,-39.64,-22.61,38.93,0.63,76.59
746,-39.12,-50.87,-2.62,-8.2,-7.97,-11.95,-31.54,-29.81,-43.42,-37.81,-41.61,-0.18,-21.2,-18.67,10.79,-28.93,-16.41,43.51,7.14,78.01
747,-13.98,-36.38,19.19,9.4,0.7,3.62,-14.19,-11.17,-25.81,-25.4,-28.58,17.1,-5.15,-9.48,28.07,-15.98,-3.33,56.16,19.6,56.19
748,-15.04,-24.74,22.98,14.8,5.49,-18.04,-5.12,-11.13,-26.11,-25.81,-28.89,13.74,-6.49,-10.76,27.91,-17.06,-2.01,55.72,18.74,71.02
749,-26.71,-36.28,16.83,12.64,1.16,-12.68,-8.21,-18.22,-37.09,-28.93,-31.52,6.66,-15.13,-14.59,18.88,-19.12,-8.19,52.2,15.8,111.65
750,-24.87,-32.18,14.12,1.42,9.81,0.03,-30.56,-26.15,-33.72,-32.41,-36.97,4.05,-13.07,-17.0,23.09,-23.78,-7.49,46.66,11.06,5.09
751,-30.69,-33.59,10.41,-7.25,-2.59,3.15,-28.92,-29.81,-41.48,-44.42,-48.9,0.47,-22.62,-29.06,13.36,-34.08,-20.28,36.55,2.19,22.0
752,-57.59,-76.55,-32.54,-20.62,-13.28,-26.5,-33.19,-41.17,-65.95,-59.56,-59.8,-9.0,-36.24,-36.93,-0.2,-38.12,-25.49,32.07,-4.13,107.56
753,-34.85,-47.15,13.34,4.66,3.45,-22.3,-16.01,-24.84,-44.34,-42.18,-44.94,-4.43,-22.22,-25.65,12.32,-26.55,-15.93,40.07,6.29,60.5
754,-22.32,-24.4,35.31,16.92,-11.45,-23.77,-6.09,-14.49,-31.68,-35.0,-38.37,4.75,-13.24,-20.91,22.0,-22.45,-10.14,43.13,10.95,13.67
755,-32.19,-39.99,15.28,9.14,-2.31,-21.96,-12.54,-21.44,-41.89,-38.55,-41.53,5.37,-14.44,-22.24,17.56,-20.2,-11.63,41.66,8.79,112.2
756,-35.52,-49.34,3.92,0.89,-13.72,-21.98,-19.66,-27.8,-49.91,-44.49,-46.58,-8.4,-26.0,-29.17,9.89,-29.16,-20.27,38.38,4.19,107.45
757,-35.05,-52.07,0.22,-3.15,-12.25,-8.7,-21.89,-26.22,-50.6,-48.8,-50.99,1.53,-24.62,-32.68,10.38,-33.16,-22.22,34.37,0.32,9.19
758,-39.58,-55.71,-6.34,-8.14,2.76,-8.84,-26.33,-27.88,-60.77,-56.17,-56.43,-4.83,-32.25,-39.75,1.83,-39.6,-31.9,31.05,-3.1,48.64
759,-40.3,-51.65,0.7,3.45,8.6,-20.58,-16.99,-19.38,-54.06,-41.55,-40.07,-6.41,-21.57,-23.94,14.95,-22.93,-13.38,47.82,13.28,107.48
760,-17.97,-30.11,27.41,20.43,9.28,-3.01,-2.12,-4.56,-33.74,-28.91,-29.1,14.14,-3.66,-15.94,26.48,-14.23,-9.18,51.79,19.82,45.0
761,-12.29,-26.39,24.24,13.79,7.01,-15.19,-9.7,-5.19,-28.96,-27.96,-28.75,16.31,-0.96,-10.01,33.48,-8.19,-3.91,57.18,23.25,49.85
762,-16.3,-40.51,6.49,5.0,10.04,9.72,-21.49,-15.81,-36.35,-26.82,-28.32,13.08,-2.59,-7.07,29.08,-3.74,-0.34,60.03,25.97,67.48
763,-14.74,-33.48,-0.4,3.06,17.08,1.4,-13.49,-21.8,-38.55,-35.1,-37.84,12.23,-9.54,-18.19,17.09,-20.23,-15.93,42.92,10.77,9.93
764,-39.18,-68.58,-35.25,-21.69,-0.84,-34.02,-32.93,-33.91,-58.61,-59.05,-59.57,-13.18,-28.27,-38.74,1.59,-38.94,-34.15,26.31,-7.39,8.47
765,-38.55,-41.73,23.21,8.69,-10.73,-16.6,-16.0,-17.47,-44.91,-37.95,-39.01,-3.07,-17.66,-24.93,11.75,-26.0,-22.4,41.89,10.17,103.54
766,-24.49,-30.03,14.76,3.38,16.22,4.37,-20.42,-21.04,-43.46,-34.95,-38.53,3.94,-19.64,-23.59,11.4,-26.62,-25.35,41.75,10.11,88.13
767,-13.5,-23.9,27.59,11.28,7.25,-0.85,-17.37,-10.04,-30.8,-29.41,-32.36,7.9,-7.33,-19.95,20.22,-21.14,-21.63,44.36,13.62,24.89
768,-17.06,-30.3,16.8,12.14,27.04,-18.01,-7.74,-6.31,-33.17,-30.7,-32.86,11.24,-4.11,-17.87,19.23,-17.48,-20.2,45.23,15.67,69.35
769,-33.99,-50.54,0.18,-0.69,-6.68,-20.35,-13.54,-23.46,-58.53,-49.1,-51.69,-13.3,-32.33,-41.16,-7.28,-45.69,-45.08,23.51,-4.85,72.53
770,-19.71,-34.45,11.04,5.34,16.78,-9.5,-10.39,-17.81,-46.45,-42.72,-45.13,-5.73,-26.6,-37.77,0.12,-39.78,-40.16,26.73,-1.68,11.1
771,-26.35,-24.46,23.86,10.69,-8.8,-3.2,-8.13,-11.75,-41.49,-40.1,-42.28,-7.17,-21.03,-34.04,5.3,-35.27,-30.9,34.02,4.16,8.99
772,-37.96,-39.02,9.09,3.27,4.44,-2.54,-20.5,-20.18,-54.93,-46.02,-47.59,-12.86,-30.2,-39.44,-3.25,-38.06,-38.63,32.26,2.01,80.94
773,-19.3,-39.24,18.26,16.6,15.39,4.04,-6.17,-5.27,-42.05,-35.23,-34.33,1.67,-19.85,-26.09,11.85,-26.93,-26.62,46.6,15.67,58.16
774,-24.38,-48.51,3.43,1.9,10.69,7.16,-13.51,-8.96,-44.78,-45.33,-43.91,-0.03,-17.79,-33.47,9.69,-28.73,-26.41,40.56,7.37,54.06
775,-33.29,-49.68,3.49,-3.71,1.23,2.06,-24.83,-20.88,-59.05,-54.37,-54.15,-17.35,-33.85,-45.13,-6.41,-42.09,-38.5,31.99,-1.22,138.24
776,-41.93,-54.05,4.73,2.45,-3.42,-23.56,-14.93,-21.64,-62.88,-57.02,-56.97,-23.21,-41.38,-50.22,-14.66,-45.64,-46.6,22.52,-8.04,114.95
777,-28.32,-41.63,1.76,1.41,4.07,-23.96,-12.98,-13.26,-52.95,-53.36,-54.32,-10.2,-31.7,-46.28,-6.04,-45.15,-41.52,27.13,-4.33,47.29
778,-19.14,-26.08,12.53,11.73,17.65,5.19,-7.52,-5.61,-43.98,-43.61,-41.77,-5.22,-21.91,-35.49,3.98,-33.19,-28.89,39.78,7.7,136.53
779,-29.98,-34.09,13.13,5.83,12.84,27.3,-15.68,-17.13,-54.29,-48.84,-48.37,-19.87,-32.87,-44.15,-7.25,-42.11,-35.87,32.46,-0.71,169.23
780,-15.54,-31.34,12.42,11.51,8.54,-16.2,-9.92,-7.34,-44.33,-43.25,-42.95,-0.68,-21.89,-37.28,2.44,-31.19,-25.9,39.72,5.09,75.03
781,-27.1,-43.08,-0.69,-8.5,15.6,13.51,-34.26,-22.71,-55.7,-57.7,-57.55,-14.03,-30.66,-50.71,-8.66,-39.03,-34.81,25.92,-8.92,87.49
782,-29.42,-42.02,7.37,2.64,13.22,-13.31,-12.49,-16.36,-54.0,-51.03,-52.19,-17.1,-30.18,-43.3,-10.24,-39.19,-34.18,27.98,-4.32,157.47
783,-35.02,-43.84,17.51,14.17,-14.2,-27.97,-0.06,-8.8,-53.37,-49.66,-48.81,-16.21,-30.23,-43.95,-10.41,-38.75,-32.41,29.28,-3.38,121.36
784,-20.63,-33.81,16.34,7.97,16.16,-2.54,-13.98,-7.57,-44.76,-47.51,-48.6,-6.7,-20.17,-40.47,-2.63,-35.27,-30.56,35.79,0.65,85.82
785,-13.26,-34.83,11.45,9.84,13.34,6.73,-10.8,-5.85,-42.53,-41.09,-42.14,-2.66,-16.74,-30.73,0.86,-27.05,-23.78,43.45,7.79,125.1
786,-22.64,-28.71,6.45,5.51,24.48,-0.27,-11.94,-13.75,-46.89,-44.83,-46.79,-8.08,-23.67,-37.29,-10.24,-35.27,-35.71,30.96,-1.51,128.05
787,-18.44,-20.54,20.25,6.38,26.5,3.98,-18.33,-14.1,-42.87,-47.44,-50.74,-4.05,-18.93,-41.54,-8.42,-37.93,-38.25,22.1,-9.82,19.71
788,-8.57,-9.62,34.06,25.77,8.83,-8.03,8.75,4.99,-31.76,-34.56,-36.81,4.96,-8.7,-29.09,4.0,-24.94,-23.75,44.51,8.72,43.05
789,-7.77,-33.41,1.72,12.52,35.39,7.58,1.05,-1.2,-40.58,-37.49,-38.63,12.98,-11.0,-24.77,0.9,-22.2,-23.85,47.85,11.65,59.95
790,0.1,-13.69,40.67,24.39,19.45,-7.6,5.04,1.12,-26.66,-32.79,-38.38,2.37,-9.98,-30.12,2.58,-21.84,-24.99,39.99,5.58,-151.57
791,11.3,-5.71,29.65,17.03,38.97,11.56,-6.27,0.18,-22.92,-31.63,-37.5,-0.59,-3.42,-23.68,6.26,-15.92,-20.11,46.27,9.22,-172.42
792,6.19,-3.32,38.3,27.47,47.38,18.37,4.21,4.42,-23.25,-23.67,-28.21,19.45,1.72,-14.87,11.73,-5.76,-7.65,56.9,18.46,-80.94
793,-15.95,-20.29,20.65,7.88,0.55,-0.66,-13.32,-12.29,-42.23,-44.94,-52.0,-1.61,-21.47,-41.06,-12.91,-30.77,-38.67,27.43,-7.71,18.62
794,-27.72,-38.14,-3.57,-18.42,6.95,-6.77,-40.66,-29.17,-57.88,-66.83,-72.0,-19.23,-36.2,-60.75,-30.24,-48.91,-52.53,6.34,-28.11,126.97
795,-30.2,-45.62,-5.29,-5.29,4.04,-17.56,-10.12,-14.25,-58.99,-60.73,-63.89,-12.73,-28.18,-52.53,-26.1,-42.05,-49.34,17.17,-17.6,195.27
796,-29.99,-50.72,-0.74,-2.78,16.29,-18.33,-9.01,-16.59,-60.86,-60.29,-63.72,-16.48,-32.57,-55.18,-30.92,-43.23,-54.88,16.7,-17.36,186.38
797,-8.88,-33.82,11.83,-2.73,32.17,-12.36,-20.5,-13.7,-44.15,-52.19,-56.32,-4.11,-15.52,-45.22,-16.71,-31.08,-37.03,24.13,-11.13,90.75
798,-11.44,-36.08,8.8,-0.31,11.53,17.61,-19.4,-9.99,-44.33,-48.57,-52.3,-0.26,-14.89,-41.07,-12.79,-26.72,-33.6,29.85,-5.44,126.49
799,1.92,-11.07,24.54,18.44,34.08,10.89,-4.75,1.71,-30.11,-29.75,-34.09,11.09,-6.2,-22.91,-3.31,-8.33,-17.18,46.21,10.74,172.17
800,-1.49,-16.19,29.95,20.81,26.39,-6.07,0.6,6.38,-31.11,-33.31,-37.5,8.22,-8.05,-30.81,-7.83,-18.33,-26.24,37.26,3.35,78.79
801,-22.9,-42.09,0.94,-0.09,4.35,-15.4,-14.72,-10.85,-52.63,-54.96,-58.94,-6.44,-22.74,-50.49,-25.27,-37.94,-41.7,18.78,-15.89,75.46
802,-17.48,-25.79,21.56,20.99,5.93,-7.12,3.2,2.18,-46.29,-42.06,-42.96,-0.13,-17.96,-37.97,-16.64,-22.24,-27.31,36.34,0.86,179.42
803,-9.23,-18.66,35.72,25.72,13.28,-21.58,4.8,5.34,-40.11,-40.14,-43.03,-1.98,-16.37,-40.59,-16.45,-17.34,-25.33,35.88,0.4,114.09
804,-3.16,-13.97,26.73,16.18,11.78,-0.18,-4.94,2.45,-38.79,-43.51,-46.53,6.06,-12.08,-43.11,-15.94,-15.96,-25.92,32.5,-2.33,76.67
805,-25.2,-40.44,1.34,-1.71,2.98,-2.42,-19.43,-13.65,-56.31,-59.79,-61.67,-2.44,-24.65,-56.49,-34.43,-24.75,-39.43,18.92,-16.21,143.0
806,-35.87,-58.04,-11.19,-11.55,-1.39,-29.87,-24.54,-25.91,-70.06,-71.85,-73.99,-18.75,-42.07,-70.13,-47.78,-37.41,-49.39,7.6,-28.37,98.15
807,-21.66,-40.73,6.92,-7.29,18.8,-3.57,-30.63,-18.36,-54.86,-59.66,-62.62,2.12,-24.96,-55.15,-30.36,-22.77,-35.6,19.55,-16.7,51.19
808,-28.21,-41.57,6.45,-4.97,-5.72,-7.47,-23.44,-14.73,-57.33,-62.13,-64.09,-1.98,-26.76,-56.69,-33.15,-27.06,-37.88,19.62,-16.17,116.52
809,-27.98,-45.75,2.1,1.42,14.16,-20.64,-6.24,-11.26,-61.4,-57.85,-58.22,-8.43,-28.0,-50.4,-30.24,-26.08,-33.96,23.76,-10.7,143.74
810,-7.78,-25.01,18.77,15.65,16.09,-5.76,4.03,5.65,-40.22,-41.64,-42.72,7.69,-6.78,-34.19,-9.48,-9.62,-17.22,40.84,3.61,79.32
811,-15.56,-24.76,20.33,7.21,21.89,-29.1,-6.34,-3.57,-45.32,-51.06,-52.99,-1.72,-15.91,-44.79,-18.34,-27.01,-32.88,30.63,-5.37,89.29
812,-21.85,-47.99,2.17,4.27,10.31,-16.63,-10.88,-7.11,-51.6,-47.19,-47.08,0.39,-14.47,-33.96,-14.91,-20.62,-26.27,40.59,3.33,159.85
813,16.41,-4.27,43.25,35.93,10.49,11.67,16.47,21.78,-14.21,-13.01,-14.55,27.9,17.43,-4.32,17.21,8.23,3.16,69.89,31.05,113.1
814,12.1,-1.73,21.31,16.64,49.4,12.39,-0.02,11.69,-16.59,-25.55,-28.89,28.84,14.98,-15.98,7.44,-1.57,-14.44,52.82,15.36,29.71
815,-38.79,-37.66,0.86,0.25,0.69,-12.71,-9.16,-10.5,-57.55,-58.26,-59.58,-17.23,-29.01,-51.51,-32.69,-47.28,-60.06,13.24,-18.97,109.4
816,-17.17,-37.41,16.27,12.84,17.52,-14.99,-8.57,-3.53,-43.74,-40.55,-43.4,2.7,-11.35,-32.39,-15.63,-34.89,-42.65,32.18,-1.64,86.25
817,10.5,-10.8,34.91,28.34,17.23,0.37,7.83,14.04,-22.39,-24.71,-27.55,22.9,8.27,-19.0,0.81,-24.25,-30.85,43.29,11.72,48.44
818,-3.75,-12.35,42.64,29.21,17.07,-8.2,14.59,10.23,-30.69,-30.85,-35.33,2.84,-2.69,-29.13,-13.85,-37.76,-46.88,28.05,-0.88,89.24
819,-37.85,-58.62,-9.46,-9.53,-11.98,-5.71,-25.34,-23.38,-63.64,-60.32,-62.28,-25.21,-32.03,-54.01,-43.06,-64.42,-73.39,7.92,-23.59,101.48
820,-19.74,-27.81,13.68,4.58,0.83,9.7,-16.58,-13.95,-42.73,-43.04,-47.87,-8.08,-12.1,-39.95,-27.38,-50.72,-63.54,17.3,-14.34,37.46
821,4.13,-5.69,38.33,29.08,35.55,-13.04,5.57,7.35,-16.85,-20.19,-26.95,20.57,14.19,-16.94,-3.63,-28.71,-41.23,37.58,6.46,55.35
822,-11.91,-23.15,31.9,21.79,17.83,-2.34,4.4,-3.71,-34.45,-31.7,-37.24,10.51,-6.95,-30.72,-22.16,-43.88,-57.4,26.1,-4.26,114.65
823,-6.02,-14.37,33.19,20.88,8.54,3.68,0.51,-4.33,-29.27,-29.78,-35.66,5.93,-3.41,-30.24,-21.51,-42.24,-55.46,26.07,-4.54,62.1
824,7.62,-4.65,37.44,22.8,22.98,-8.44,2.26,1.83,-17.01,-23.75,-30.89,18.25,7.96,-22.24,-11.94,-36.17,-50.15,28.98,0.04,17.15
825,-0.4,-27.11,9.97,16.31,12.32,-9.39,-5.45,-1.61,-22.55,-20.46,-24.58,23.18,13.99,-11.0,-4.02,-25.7,-41.15,43.37,10.97,109.53
826,16.23,6.63,41.69,34.54,24.09,-10.74,4.88,5.39,-5.96,-7.83,-13.87,32.76,23.45,-0.37,0.69,-15.74,-33.36,46.07,16.79,101.04
827,11.12,-13.17,28.51,17.98,24.77,-3.13,-15.37,-5.82,-12.92,-19.41,-27.5,38.31,20.87,-10.65,-4.62,-25.1,-42.43,35.62,4.11,-30.88
828,-13.32,-23.18,20.31,8.09,8.37,-8.8,-27.55,-18.0,-33.11,-36.89,-42.95,14.51,0.01,-27.66,-22.13,-41.64,-59.65,19.58,-10.31,51.11
829,-10.5,-27.41,9.17,11.52,6.87,-12.92,-5.62,-10.26,-40.06,-37.8,-42.29,8.61,-3.96,-28.52,-24.53,-42.82,-60.95,20.19,-7.81,105.54
830,-16.4,-31.24,10.0,5.84,-2.9,-10.84,-12.8,-15.24,-41.9,-45.02,-49.92,3.12,-6.55,-37.3,-29.93,-48.31,-64.5,12.8,-17.0,29.97
831,5.42,-10.83,40.29,26.63,18.67,-12.09,2.36,1.24,-23.92,-28.88,-33.68,22.83,8.92,-24.21,-15.06,-35.17,-55.45,25.55,-3.46,24.97
832,-8.69,-31.09,20.1,14.58,18.29,-16.61,-8.17,-12.78,-39.76,-40.75,-45.97,12.26,-5.27,-35.92,-31.84,-45.01,-65.27,15.95,-15.41,59.55
833,-6.46,-25.08,14.91,11.79,16.25,-12.8,-9.27,-10.11,-37.1,-38.77,-44.37,7.61,-3.82,-34.18,-27.35,-46.2,-64.58,18.02,-12.34,13.16
834,14.33,1.73,35.86,29.19,37.12,-5.88,13.54,8.63,-14.26,-22.72,-29.74,34.98,16.1,-18.02,-10.09,-24.95,-51.5,32.28,1.65,-47.27
835,-2.2,-17.79,32.19,22.38,2.92,-7.39,-0.12,-1.48,-25.88,-29.23,-34.89,24.09,4.43,-22.77,-18.92,-34.66,-55.22,28.92,-2.57,52.47
836,-0.08,-19.18,21.59,20.67,13.69,-11.2,4.51,-1.74,-28.26,-30.43,-34.96,16.49,1.59,-24.21,-20.04,-35.56,-54.73,26.33,-3.33,24.61
837,11.82,-11.67,34.17,26.87,35.56,-4.9,9.38,8.25,-17.73,-26.98,-32.51,29.81,13.83,-22.79,-14.88,-28.97,-55.38,27.94,-1.43,-68.34
838,-12.79,-26.98,22.68,12.86,-10.1,-9.13,-6.55,-7.5,-35.63,-40.73,-46.09,6.01,-4.23,-37.16,-29.63,-44.55,-67.41,16.05,-15.35,-12.3
839,-12.84,-31.42,3.28,5.29,-5.53,5.59,-12.0,-11.93,-40.93,-42.04,-46.92,15.01,-8.3,-33.45,-30.48,-40.76,-64.41,23.08,-11.04,58.88
840,0.05,-22.89,18.62,7.54,18.68,-16.43,-12.65,-12.99,-32.31,-40.41,-48.27,27.0,-0.21,-34.16,-28.12,-39.2,-65.6,16.86,-15.95,-65.06
841,-20.47,-26.05,18.53,2.82,-13.0,-9.53,-12.84,-18.87,-41.64,-50.87,-57.61,4.88,-17.15,-46.89,-40.63,-54.41,-76.02,4.62,-27.98,-36.39
842,-20.36,-28.09,8.19,-1.12,5.45,27.06,-26.55,-18.86,-40.71,-41.6,-48.49,7.35,-9.85,-33.27,-31.64,-43.4,-68.71,20.83,-13.26,36.67
843,1.33,-18.19,9.11,9.52,15.05,-26.71,-8.98,-11.11,-32.15,-34.58,-43.0,17.3,-1.49,-28.85,-25.56,-37.42,-66.28,21.63,-10.54,13.82
844,-7.56,-23.51,13.58,8.77,-6.15,-13.93,-5.08,-7.84,-36.69,-40.55,-48.06,8.77,-8.28,-36.09,-29.28,-47.08,-73.38,15.47,-15.89,-9.98
845,8.43,-14.07,38.03,29.75,8.19,-5.79,6.68,7.85,-19.29,-18.48,-23.32,26.87,12.18,-11.66,-6.21,-22.97,-49.86,45.89,11.18,42.35
846,7.55,-19.61,29.35,24.62,41.59,-2.44,-1.05,3.57,-23.04,-19.36,-23.64,32.3,6.74,-12.74,-8.45,-26.45,-50.62,46.5,11.79,36.67
847,9.22,-15.09,43.25,32.55,2.74,-9.31,13.03,12.78,-18.57,-21.0,-25.29,29.96,12.66,-17.36,-8.78,-25.82,-52.27,39.83,7.02,-16.74
848,-2.15,-21.52,25.03,20.9,20.24,-29.6,6.09,-0.52,-31.98,-33.32,-38.27,14.45,-3.68,-30.89,-23.71,-40.4,-66.3,26.5,-6.3,13.68
849,-18.08,-25.69,12.58,15.28,7.97,-10.69,-1.67,-5.7,-42.28,-36.1,-39.67,7.89,-11.42,-33.07,-30.71,-43.58,-70.46,21.98,-7.32,96.53
850,-6.26,-13.75,34.36,25.95,8.28,-17.36,2.8,3.93,-26.62,-27.32,-32.96,18.27,-1.67,-30.87,-23.73,-38.31,-66.02,24.97,-3.62,-10.91
851,7.76,-10.67,28.14,25.3,23.98,-4.06,0.79,5.29,-20.28,-23.63,-30.21,29.2,7.08,-23.33,-15.75,-29.44,-57.57,33.82,1.15,12.51
852,-13.23,-29.88,9.87,6.73,0.17,0.3,-17.43,-11.76,-40.3,-37.64,-43.14,3.53,-8.06,-32.8,-31.13,-40.88,-68.72,25.02,-8.58,98.12
853,-6.83,-20.98,27.17,21.62,-12.23,-36.11,-0.72,0.62,-30.83,-29.83,-36.39,10.69,-5.4,-29.83,-24.55,-39.4,-64.11,31.07,-2.67,24.56
854,-12.97,-30.63,14.14,6.34,0.94,-1.3,-12.67,-11.73,-44.06,-45.68,-52.18,-1.26,-20.45,-48.82,-38.6,-53.77,-82.13,12.2,-19.05,8.64
855,-13.43,-23.51,21.53,15.18,20.0,-4.55,-7.02,-7.72,-42.72,-40.3,-45.44,-1.23,-21.35,-42.71,-36.68,-49.44,-74.88,22.58,-10.06,113.2
856,-2.95,-15.06,43.51,39.44,13.41,-8.46,20.39,12.7,-25.93,-18.85,-23.3,17.79,-2.81,-23.21,-18.89,-27.79,-53.16,42.68,9.16,59.49
857,-16.46,-30.76,18.45,13.23,7.52,17.84,-16.01,-5.89,-38.4,-37.15,-41.2,13.85,-14.09,-36.68,-26.54,-42.91,-62.21,31.28,-5.27,10.57
858,3.91,1.02,42.7,32.36,5.47,-17.77,9.24,8.64,-19.67,-19.93,-26.31,26.75,5.88,-18.44,-12.68,-20.98,-42.83,43.84,7.74,68.44
859,-9.86,-23.38,19.84,17.48,-3.58,-14.22,8.26,-5.91,-40.34,-35.34,-41.87,7.02,-12.51,-33.23,-31.07,-35.05,-58.46,28.95,-7.7,85.88
860,-10.44,-22.85,19.95,12.64,9.48,-15.85,-0.38,-6.9,-38.94,-39.14,-46.67,2.48,-13.39,-36.93,-30.79,-43.09,-62.56,24.35,-12.76,14.13
861,-14.79,-33.31,14.24,5.35,12.91,-29.98,-6.7,-11.13,-40.55,-42.98,-51.42,-0.4,-11.86,-38.34,-30.44,-44.62,-65.88,23.18,-16.82,38.51
862,-33.11,-59.51,-22.25,-16.24,-4.24,-34.59,-24.33,-32.54,-64.84,-57.76,-65.08,-13.38,-33.22,-48.51,-43.64,-56.83,-78.55,12.68,-28.34,95.19
863,-33.92,-61.57,-17.79,-11.72,-14.16,-23.05,-16.18,-24.11,-60.17,-53.85,-60.85,-11.01,-26.78,-46.41,-37.35,-56.96,-74.0,18.03,-23.76,52.05
864,-19.2,-34.66,21.32,10.58,-18.76,-24.77,-0.82,-3.08,-35.36,-35.74,-44.51,4.68,-7.29,-33.1,-18.68,-38.89,-56.0,33.5,-9.78,28.98
865,-20.32,-23.59,19.14,6.7,-3.34,5.32,-12.32,-12.3,-36.65,-34.36,-45.59,15.93,-7.66,-29.02,-21.72,-36.9,-55.48,34.14,-9.12,82.68
866,-19.45,-29.06,12.56,5.32,12.63,-22.1,-8.03,-14.14,-37.34,-34.81,-46.02,11.95,-12.29,-30.33,-23.32,-37.68,-54.79,32.86,-10.75,56.04
867,-14.88,-34.3,11.32,8.09,2.49,-21.15,-0.93,-10.49,-35.81,-38.81,-48.69,12.42,-9.27,-34.2,-23.04,-38.42,-53.47,27.29,-15.55,3.96
868,-24.31,-30.47,-3.3,-2.64,-24.57,-11.31,-7.99,-16.42,-44.01,-45.71,-54.52,-2.38,-16.0,-39.42,-28.23,-43.17,-58.03,23.87,-18.77,32.73
869,-13.55,-22.77,22.51,14.84,-7.6,-2.8,-2.48,-7.08,-32.56,-26.99,-35.79,7.24,-3.42,-23.04,-13.56,-28.58,-39.97,47.59,0.25,79.88
870,-9.33,-30.22,21.45,12.86,5.14,-16.44,-8.11,-6.75,-30.64,-28.75,-38.57,12.21,-4.33,-27.6,-16.22,-30.14,-42.28,41.34,-3.12,14.7
871,-9.53,-14.57,39.88,19.79,-1.84,-23.97,-3.8,-5.94,-26.26,-27.55,-38.61,7.62,-10.89,-30.72,-19.6,-37.64,-47.82,34.16,-8.63,10.85
872,-15.54,-29.96,25.05,17.3,-4.99,-7.01,-7.97,-12.05,-31.69,-24.94,-34.68,10.96,-12.14,-27.22,-20.74,-36.18,-44.43,41.63,-3.01,70.79
873,-8.5,-19.91,26.22,11.63,7.06,6.5,-12.86,-16.3,-27.76,-24.79,-36.52,8.72,-10.65,-31.68,-22.52,-35.64,-47.78,38.71,-5.83,38.93
874,-8.91,-27.82,4.83,0.05,7.96,-22.74,-15.06,-17.41,-31.79,-33.2,-43.76,10.62,-10.67,-35.31,-23.24,-40.5,-50.58,34.62,-11.37,-23.64
875,-27.66,-35.03,30.13,16.86,-12.96,-23.33,0.48,-8.89,-35.72,-28.63,-37.8,2.85,-20.16,-34.84,-25.04,-42.26,-50.59,41.87,-4.49,67.34
876,-4.89,-18.61,33.67,26.47,13.42,-8.98,4.14,-0.86,-21.56,-13.02,-22.88,16.23,-3.82,-16.17,-8.65,-26.96,-33.4,60.88,12.52,36.65
877,20.44,9.07,50.32,36.3,38.23,-8.72,4.89,10.36,4.03,3.36,-7.82,43.45,19.94,1.08,14.0,-5.61,-16.21,78.03,27.25,-27.76
878,12.64,-6.05,48.31,36.46,26.39,-17.56,11.0,12.73,-0.43,3.98,-8.48,34.67,19.75,1.17,14.65,-5.55,-13.9,79.5,28.96,21.1
879,2.03,-13.63,27.76,19.92,33.71,-7.73,-2.07,-3.31,-14.01,-8.86,-20.34,22.94,5.2,-9.23,0.99,-18.03,-29.94,67.38,17.38,51.44
880,-21.23,-27.27,27.85,6.34,-10.37,3.88,-17.17,-20.99,-29.16,-28.73,-41.6,3.45,-16.99,-35.16,-19.83,-44.84,-55.1,40.63,-8.02,-2.43
881,-21.11,-33.76,20.05,9.02,-16.74,-25.68,-9.27,-12.71,-32.09,-29.58,-41.05,-1.7,-15.58,-34.49,-17.36,-45.47,-53.38,42.3,-5.78,7.92
882,-11.83,-21.48,27.81,17.42,23.07,4.75,-1.41,-9.88,-24.48,-19.72,-32.09,12.44,-9.19,-24.92,-13.93,-34.03,-47.69,48.02,0.66,79.05
883,-6.82,-16.05,29.22,17.11,17.99,-1.98,2.3,-9.88,-20.25,-17.92,-32.54,9.88,-8.33,-24.95,-12.42,-35.26,-45.21,46.14,-1.43,50.26
884,-2.22,-2.51,45.26,25.36,-8.73,-8.52,7.79,0.3,-4.41,-7.68,-23.68,19.02,5.43,-14.19,1.21,-22.81,-34.17,56.21,6.26,38.67
885,-1.59,-4.42,31.55,24.77,20.45,3.92,6.31,0.32,-6.52,-6.0,-20.64,27.48,5.46,-11.64,2.89,-21.79,-33.95,64.15,12.85,90.49
886,-17.77,-38.23,2.84,2.69,7.14,-13.5,-11.79,-18.73,-33.02,-27.73,-43.38,0.46,-22.36,-34.88,-21.47,-45.79,-57.23,42.5,-8.3,78.29
887,-14.87,-27.2,24.73,7.24,9.83,-12.21,-6.86,-10.81,-26.63,-27.77,-43.05,-5.17,-21.66,-39.91,-18.46,-50.58,-59.42,39.05,-10.71,-8.03
888,-31.75,-26.67,22.09,5.47,-11.4,-39.35,-3.05,-17.34,-36.59,-36.01,-50.74,-16.79,-32.9,-49.98,-29.24,-61.19,-72.98,25.89,-21.62,69.48
889,-12.02,-24.6,26.7,18.16,3.62,-5.33,6.35,-7.12,-24.3,-18.1,-31.67,1.73,-15.07,-28.15,-11.48,-37.81,-50.74,45.68,-0.4,117.17
890,-7.89,-26.08,9.19,7.24,15.62,-11.28,0.22,-11.92,-31.33,-30.24,-42.63,-1.74,-26.24,-42.58,-19.28,-53.57,-65.49,34.66,-12.5,51.72
891,-8.49,-20.11,27.31,15.67,-4.32,-10.06,-3.61,-0.01,-17.42,-15.73,-27.95,13.49,-6.54,-24.68,0.97,-30.61,-43.94,60.44,7.37,64.22
892,-29.87,-33.61,22.73,8.73,9.59,4.27,-13.42,-15.26,-34.59,-26.39,-38.43,-4.25,-26.09,-36.46,-12.73,-45.31,-52.05,55.37,-1.45,97.11
893,-11.4,-27.24,23.75,20.87,17.26,-29.02,10.23,-3.18,-22.53,-16.18,-28.55,5.7,-12.52,-25.11,0.93,-34.08,-41.39,63.34,7.54,53.3
894,-1.18,-12.33,29.76,21.77,6.24,-4.54,9.41,3.08,-10.96,-10.5,-24.28,20.74,-0.82,-21.37,8.3,-28.14,-33.72,67.83,11.64,24.43
895,-23.0,-31.22,21.81,10.75,7.49,-8.74,-0.96,-11.64,-31.01,-26.28,-38.24,-8.18,-21.87,-36.97,-9.4,-45.33,-45.38,60.7,1.09,43.71
896,-25.16,-37.78,8.52,7.6,9.77,-24.57,-4.16,-16.55,-36.58,-29.31,-39.05,-10.22,-23.48,-37.3,-11.02,-42.78,-46.28,61.87,-0.31,0.83
897,-30.0,-39.88,5.05,4.06,-5.98,-15.16,-9.01,-18.46,-39.57,-36.83,-46.72,-5.74,-27.85,-48.21,-13.98,-48.83,-49.63,54.64,-8.16,-160.22
898,2.09,-7.88,44.45,25.88,24.56,6.07,-2.56,-2.53,-13.45,-9.42,-20.52,16.94,-6.91,-21.72,13.12,-23.81,-27.66,85.07,19.95,-193.76
899,-26.71,-35.12,21.87,12.75,19.55,-13.79,-1.91,-19.15,-40.91,-28.61,-37.68,-9.69,-33.28,-42.42,-14.16,-50.41,-53.19,65.67,1.42,-155.59
900,-35.31,-54.56,3.56,-4.48,-8.15,-5.9,-13.64,-27.4,-50.63,-43.06,-51.26,-21.92,-40.54,-55.22,-20.64,-62.35,-62.77,55.7,-9.96,-91.45
901,-4.31,-5.43,41.93,24.6,3.18,-19.14,14.54,-3.69,-19.26,-16.75,-25.99,6.13,-16.05,-31.47,3.85,-36.97,-40.45,77.82,12.02,76.46
902,-4.64,-16.37,34.89,29.82,15.27,-11.25,16.74,-2.64,-20.75,-8.65,-17.01,10.45,-9.08,-22.86,7.07,-30.16,-32.32,89.27,22.49,218.31
903,-8.51,-19.76,43.34,29.22,7.6,-16.69,12.82,-6.83,-21.45,-10.98,-20.34,1.4,-13.65,-28.39,1.66,-32.43,-34.96,83.49,15.57,108.89
904,-17.94,-13.93,30.25,13.9,9.34,4.87,-1.24,-18.18,-29.57,-25.48,-35.47,-7.6,-27.47,-43.3,-10.39,-47.66,-49.95,69.6,-0.99,18.94
905,-41.99,-54.31,-0.28,-9.23,-17.28,-4.72,-24.46,-36.8,-57.2,-45.44,-53.08,-21.23,-50.69,-59.87,-31.73,-67.87,-67.18,54.18,-16.32,133.0
906,-35.34,-50.52,4.96,-2.63,15.09,-24.49,-11.06,-30.84,-53.59,-39.68,-47.1,-28.38,-46.73,-56.27,-28.9,-65.15,-65.44,58.69,-9.66,113.14
907,-19.15,-35.17,25.05,9.06,-7.32,-2.8,-1.67,-22.72,-37.09,-29.56,-38.48,-13.11,-30.84,-46.72,-15.8,-54.31,-56.02,63.03,-5.37,66.61
908,-17.51,-20.17,30.37,21.58,0.61,-18.87,9.93,-13.85,-28.12,-19.44,-26.82,-5.65,-20.04,-34.7,-4.33,-45.24,-45.53,78.32,7.67,86.35
909,-17.77,-23.14,27.56,18.79,24.15,-2.0,-2.6,-19.16,-24.99,-11.7,-19.45,-0.29,-16.38,-24.16,3.88,-34.69,-29.14,90.01,17.3,119.41
910,-10.86,-19.9,41.76,25.4,-6.73,-4.19,0.58,-12.48,-15.57,-8.24,-17.64,3.01,-9.74,-23.11,6.99,-33.23,-29.71,84.82,15.09,58.64
911,-20.44,-21.29,40.79,21.6,0.75,-22.41,10.62,-15.65,-20.03,-17.43,-28.12,-10.75,-19.39,-36.14,-4.66,-48.18,-42.64,70.38,0.52,61.33
